#   1 NUMBER                 Running object number                                     
#   2 X_IMAGE                Object position along x                                    [pixel]
#   3 Y_IMAGE                Object position along y                                    [pixel]
#   4 ALPHA_J2000            Right ascension of barycenter (J2000)                      [deg]
#   5 DELTA_J2000            Declination of barycenter (J2000)                          [deg]
#   6 FLUX_APER              Flux vector within fixed circular aperture(s)              [count]
#   7 FLUXERR_APER           RMS error vector for aperture flux(es)                     [count]
#   8 FLUX_RADIUS            Fraction-of-light radii                                    [pixel]
#   9 FWHM_IMAGE             FWHM assuming a gaussian core                              [pixel]
#  10 BACKGROUND             Background at centroid position                            [count]
#  11 THRESHOLD              Detection threshold above background                       [count]
#  12 FLUX_MAX               Peak flux above background                                 [count]
#  13 ISOAREA_IMAGE          Isophotal area above Analysis threshold                    [pixel**2]
#  14 A_IMAGE                Profile RMS along major axis                               [pixel]
#  15 B_IMAGE                Profile RMS along minor axis                               [pixel]
#  16 THETA_IMAGE            Position angle (CCW/x)                                     [deg]
#  17 FLAGS                  Extraction flags                                          
         1    671.2197     17.2465 300.3928979 +22.6015414     756.9293      72.0228      1.447     3.24     6.850627     20.30948     91.86025        11     1.082     0.784  53.49   0
         2    477.0701     16.2114 300.3327246 +22.5431609     1114.406     72.00447      1.665     3.76     6.254359     20.30948     109.9659        19     1.293     1.036  51.36   0
         3    380.9118     14.4487 300.3033458 +22.5138785     805.1778     71.98614      1.389     2.89     6.546138     20.30948     111.9502        15     1.073     0.996  16.47   0
         4   1023.1974     11.5861 300.5045583 +22.7051523     1578.231     58.53641      1.448     3.62      7.61625     20.30948     199.6086        19     1.468     0.739  86.94  24
         5    763.1891     13.9313 300.4226526 +22.6280934     468.1921     71.98614      1.633     5.02     6.652435     20.30948     56.70225         8     1.077     0.674  28.52   0
         6    152.1011      4.2893 300.2354204 +22.4424648     3902.564     69.61857      1.837     3.26     7.272752     20.30948     384.0518        40     1.529     1.306  39.35  24
         7    720.3032      5.3085 300.4120702 +22.6127864     568.9042     71.98615      1.411     3.47      6.98549     20.30948     63.31897        10     0.952     0.804  13.62  16
         8    150.9862    998.3199 299.9124611 +22.7275181     2790.203      71.9678      5.259    19.04     81.69794     20.30948     70.70341       102     4.023     2.741  -7.06   3
         9     67.2031   1010.6725 299.8823900 +22.7059199     5103.259     71.93111     15.915    81.22     75.25755     20.30948     153.1585      2159    17.370    13.769  52.37  27
        10     59.6981    954.3773 299.8983635 +22.6875264     5496.641     71.91276     21.572    98.91     37.95478     20.30948     1223.998      3031    19.827    13.690 -20.85  19
        11    616.1051    986.8126 300.0610157 +22.8637020     13110.28     71.91276      3.368    11.48     5.186854     20.30948     477.5699        85     3.009     1.658 -26.70   3
        12    620.4484    985.6982 300.0627318 +22.8646840     5052.239      72.0228      1.600     5.51     5.169534     20.30948     449.3381        20     1.714     0.735  77.04   3
        13    713.0215    988.9687 300.0905262 +22.8933688     471.1308     71.98614      1.905     3.70      4.59212     20.30948     31.65724         5     1.007     0.392  30.38   0
        14    715.6483    987.4700 300.0918327 +22.8937257     501.2642      71.9678      1.585     3.32     4.578494     20.30948     43.07557         5     0.984     0.325  67.87   0
        15    144.6577    968.5093 299.9201872 +22.7170703     923.0601     72.04113      3.947    10.14     55.92913     20.30948     38.12861        17     1.976     1.452 -75.63   3
        16    147.5433    980.9652 299.9170342 +22.7215082     1160.674     72.00447      3.421    10.34     66.54604     20.30948     45.78748        25     2.681     1.111  28.67   3
        17    147.2120    977.5917 299.9180282 +22.7204413     1042.578     71.87605      2.780     6.36     63.88897     20.30948     45.16842        12     1.378     0.825   2.79   3
        18    148.5820    975.1815 299.9192381 +22.7201611     1399.702     71.98614      5.799    11.89     61.18623     20.30948     56.61281        27     2.637     1.493  32.65   3
        19    906.7928    971.2999 300.1567159 +22.9463531     799.9549      71.8944      2.200     7.67     5.250594     20.30948      42.1172        16     1.662     0.990  17.87   0
        20    154.9462    985.5064 299.9178599 +22.7250316     878.5145     72.04113      7.351    13.25     70.95169     20.30948     44.64532        17     4.049     1.206 -49.51   3
        21     58.2295    916.6645 299.9101685 +22.6762712     3405.332     72.00447     12.523    49.29     20.65949     20.30948     77.57676       821    10.187     7.043 -32.84  19
        22    119.1533    956.6840 299.9161006 +22.7060270     1141.586      71.9678      8.760    10.30     46.16815     20.30948     39.25373        18     2.496     1.185  35.03   3
        23    126.2792    956.1076 299.9185041 +22.7079997     1922.983     72.11438      7.840    11.96     45.05896     20.30948     52.55687        42     2.256     1.766  35.37   3
        24    528.5044    992.4942 300.0318711 +22.8390722     1705.128     72.15098      1.804     5.23     5.385001     20.30948     122.7793        23     1.611     0.951  71.76   3
        25    632.2046    954.5684 300.0765199 +22.8592707     6693.854      71.9678      2.108     4.93     5.117573     20.30948     378.5582        53     1.640     1.574 -30.69   0
        26    525.6634    992.2787 300.0310561 +22.8381587     901.9067     72.07776      1.490     3.86     5.374728     20.30948     98.64603        12     1.182     0.703  85.81   3
        27    197.0081    954.7668 299.9409397 +22.7288339     736.9771     71.98614      2.936     7.80     35.80426     20.30948     32.19579        13     1.470     1.158 -80.30   0
        28    144.2800    949.3948 299.9262852 +22.7114750     693.1091     71.91276      6.078     7.28     38.21907     20.30948     39.43296        10     1.767     0.841 -56.60   1
        29    512.4828    949.1296 300.0409825 +22.8218224     328.0493     72.11438      1.854     6.09     5.403915     20.30948     34.72356         9     1.439     0.873  75.14   0
        30    540.6465    945.3748 300.0509777 +22.8291874      1606.82     72.00448      1.922     4.55     5.436308     20.30948     104.4641        27     1.411     1.262   8.61   0
        31    151.7641   1007.9263 299.9095788 +22.7305064     849.5759     71.93111      2.730    15.56     90.64523     20.30948     44.37746        23     3.180     2.116   0.23  19
        32    435.3940    941.4541 300.0194673 +22.7965075     830.6705      71.9678      1.801     5.51     5.559523     20.30948     67.48091        12     1.377     0.707  76.64   2
        33    432.2142    942.0238 300.0182919 +22.7957176      470.082     72.00447      2.016     5.08     5.566546     20.30948       42.478         7     1.006     0.726 -44.40   3
        34    365.0999    939.6770 299.9981576 +22.7749198     6425.396     72.13268      2.122     4.62     5.711889     20.30948     422.7554        48     1.594     1.534  -2.45   0
        35    398.7361    927.4020 300.0126214 +22.7814834     485.8389     72.00448      1.936     5.35     5.675979     20.30948     37.53955         7     1.068     0.756 -86.79   2
        36    210.2756   1000.8953 299.9300663 +22.7460446     1379.051     72.13268      2.594     7.40     70.57404     20.30948     59.00365        27     1.862     1.321 -82.80   0
        37    218.4155    974.0263 299.9413369 +22.7407799     7467.648     72.00447      8.045    29.47     46.79176     20.30948     149.2086       672     9.499     4.976  61.43  18
        38    911.5140    918.7350 300.1752833 +22.9326663     2063.653     72.07776      2.170     6.17     5.378275     20.30948     92.43364        35     1.593     1.480  29.70   0
        39    409.6634    914.6418 300.0201727 +22.7810979     329.2348      71.9678      1.718     4.27     5.669223     20.30948     40.48157         6     1.069     0.766 -39.94   0
        40    700.4222    907.3845 300.1131284 +22.8661658     819.3206      71.9678      2.405     8.65     5.131075     20.30948     44.63108        19     1.708     1.223  34.59   0
        41    735.1277    901.7274 300.1257892 +22.8749402     1049.358     72.04113      1.938     4.64     5.156411     20.30948     83.87334        20     1.418     0.967   9.02   0
        42    336.7823    999.5237 299.9698803 +22.7835986     646.5453     71.98614      2.941     5.13       5.9969     20.30948     39.09462         9     1.242     0.599  82.17   0
        43    947.3984    895.9021 300.1939069 +22.9368535     468.9961      71.8944      1.839     5.96     5.560201     20.30948     33.96831         7     1.449     0.690  30.54   0
        44    803.4997    895.9885 300.1489788 +22.8937760      231.865      71.8944      1.473     4.22     5.338824     20.30948     31.89878         5     1.140     0.446  29.49   0
        45    757.3193    895.3636 300.1347786 +22.8797613     11270.98     71.93111      2.004     4.80     5.251795     20.30948     653.0345        59     1.628     1.528  34.79   0
        46    462.7929    883.3042 300.0469065 +22.7880317     427.2631     71.87605      1.703     4.41     5.547233     20.30948     47.46692         6     1.055     0.525 -31.73   0
        47    765.7961    877.4635 300.1432417 +22.8771595     1513.308     71.94946      1.939     4.76     5.378307     20.30948     96.85228        24     1.340     1.182  22.04   0
        48    802.5544    871.2811 300.1567166 +22.8863954     876.3367      71.9678      2.781     6.52     5.430429     20.30948     56.80606        11     1.313     0.908 -89.92   2
        49    143.6972    870.1746 299.9518585 +22.6885775     389.3425     71.93111      2.020     4.47     10.95092     20.30948     34.17013         5     1.190     0.477 -34.05   0
        50    852.7183    862.9827 300.1750635 +22.8990377     460.7026      71.9678      1.871     4.60     5.508975     20.30948     35.08968         6     0.802     0.750  19.76   0
        51    703.3132    861.0145 300.1291048 +22.8537148     664.6682     71.93111      2.209     8.37     5.499024     20.30948     38.03206        14     1.669     1.172  38.47   0
        52    715.4214    858.7777 300.1336073 +22.8567002     618.9053     71.98614      1.810     4.72     5.489165     20.30948     54.84136        14     1.350     0.789  39.59   0
        53    416.3240    857.3467 300.0408727 +22.7666503     4184.348      72.0228      1.908     4.29     5.670403     20.30948      305.309        41     1.479     1.443  88.88   0
        54    141.6724    842.8142 299.9601217 +22.6801215     802.7705     71.98614      2.054     6.64     8.888765     20.30948       56.453        18     1.489     1.367 -28.13   0
        55    118.7210    839.7409 299.9539825 +22.6723556     1553.232      72.0228      2.073     4.50     8.913795     20.30948     126.3363        32     1.599     1.360  24.47   0
        56    990.3823    829.6517 300.2288619 +22.9306864     2197.068      71.9678      2.018     4.85     5.641276     20.30948     121.4628        32     1.490     1.332  19.56   0
        57    944.7979    827.9648 300.2151808 +22.9165521     2209.646     71.94946      2.070     4.91      5.65882     20.30948     114.6669        34     1.511     1.419   3.84   0
        58    649.5118    828.3454 300.1229510 +22.8282120      620.116      72.0228      2.346     5.56     5.608558     20.30948     37.90107         7     1.640     0.531 -16.43   0
        59    729.6235    822.0972 300.1499586 +22.8504190     703.8092     71.91276      2.352     4.73     5.555606     20.30948     47.38313         7     1.081     0.587 -48.86   2
        60    151.7553    822.1314 299.9699796 +22.6772122     489.9477     71.94946      1.726     2.72     7.622198     20.30948     56.62062         7     0.828     0.586  55.66   0
        61    596.3648    815.6050 300.1105268 +22.8086281     4695.386     71.98615      1.820     4.27      5.72052     20.30948     377.7228        38     1.429     1.319  35.27   0
        62     85.7776    814.7916 299.9518463 +22.6553172     356.4128     71.98614      1.783     4.76     7.159657     20.30948      29.2007         7     1.899     0.338  40.43   0
        63    398.3221    812.4182 300.0498698 +22.7483572     577.0275     71.98615      1.766     6.09     5.703059     20.30948     48.56708        13     1.279     0.935 -20.55   0
        64    146.4670    809.0703 299.9725793 +22.6718790     1396.692      72.0228      2.025     5.14     6.900996     20.30948     99.61028        26     1.460     1.289  30.35   0
        65    617.1025    808.0930 300.1194313 +22.8126847      715.485     72.16927      1.719     4.46     5.733381     20.30948     69.87395        13     1.182     0.840   3.82   0
        66    533.7111    799.4897 300.0962409 +22.7852251     241.9156     72.15098      1.097     3.42     5.776073     20.30948     44.60999         5     1.022     0.331 -22.78   0
        67    989.6202    795.5855 300.2396962 +22.9206668     1073.059      71.9678      2.081     7.47     5.616737     20.30948     54.77464        24     1.590     1.209 -23.57   0
        68    772.3921    795.3868 300.1719774 +22.8555573     4375.987     71.87605      1.877     4.10     5.683036     20.30948     313.6396        40     1.476     1.384  52.60   0
        69    181.1821    789.7542 299.9896546 +22.6767480     491.7689      72.0228      1.804     4.68      6.45908     20.30948     49.67152        10     1.211     0.921  -1.89   0
        70    489.3633    787.7023 300.0862556 +22.7685499     697.5905     71.98615      1.759     6.97     5.760442     20.30948     47.57056        16     1.309     1.041  12.02   0
        71    135.9053    785.6857 299.9768932 +22.6620022     1013.444     72.16927      1.928     4.82     6.444332     20.30948     76.17875        17     1.323     1.208  -4.21   0
        72    285.4197    777.7194 300.0259989 +22.7045502     54002.09      71.9678      1.906     4.13     5.952671     20.30948     4305.571       103     1.647     1.574  27.64   0
        73    551.6470    781.1744 300.1077812 +22.7853406     508.9104     72.00447      1.575     4.11     5.802929     20.30948     45.46104         9     0.922     0.692  23.98   0
        74    956.2984    776.6289 300.2354550 +22.9052414     805.2682     71.91276      1.956     6.20     5.670959     20.30948     51.67051        18     1.452     1.012  19.98   0
        75    543.3124    776.8378 300.1065934 +22.7815977     1662.912      71.9678      1.738     4.15     5.805964     20.30948      124.119        25     1.256     1.224  41.67   0
        76    214.4598    775.8767 300.0045166 +22.6827450     445.0655     72.04113      1.541     3.56     6.461764     20.30948     55.05495         6     0.968     0.496  86.70   0
        77    572.3633    772.8091 300.1169547 +22.7891459     870.4131     71.98614      1.783     4.81     5.815274     20.30948     72.97209        16     1.306     0.947  15.42   0
        78    583.3315    771.4358 300.1208190 +22.7920380     713.0109     71.98615      1.883     3.31     5.818606     20.30948      68.9419        13     1.040     0.898 -10.33   0
        79    688.6731    767.4796 300.1549400 +22.8224620     494.4471     72.09607      1.764     6.09     5.838139     20.30948     39.11094        12     1.107     0.943 -35.70   0
        80    335.1814    754.9885 300.0488734 +22.7129441      31713.5     71.94946      1.838     3.60     5.815307     20.30948     2727.714        79     1.577     1.468  17.97   0
        81    726.2504    757.9629 300.1697490 +22.8309844     717.4794     71.98614      1.698     5.14     5.900444     20.30948     51.96717        15     1.223     0.928   4.64   0
        82    349.4669    755.5097 300.0531512 +22.7173760     2059.952     72.09607      1.878     4.16     5.782384     20.30948     164.0289        28     1.370     1.209  25.94   2
        83    346.3539    749.8603 300.0540176 +22.7148212     708.7726      72.0228      2.282     4.12     5.795717     20.30948     67.34816        13     1.205     0.844   8.39   2
        84    858.3413    751.3109 300.2131121 +22.8686337      2959.71     72.05945      1.883     4.04      5.91042     20.30948     217.2382        32     1.396     1.306  24.98   0
        85    616.1803    747.1337 300.1389529 +22.7949001      949.978     71.94946      1.695     4.12     5.865118     20.30948     79.66238        17     1.238     0.964  48.93   0
        86    463.2169    741.7482 300.0930432 +22.7475190     916.1036     71.98615      1.749     3.97     5.698393     20.30948     106.9817        19     1.289     1.042  40.39   0
        87     22.8936    741.7714 299.9560208 +22.6155083     348.7711     71.91276      1.462     5.19     5.669281     20.30948      39.0588         9     1.204     0.633  69.86   0
        88    864.6951    739.2549 300.2190119 +22.8670715     486.1429     72.04113      1.694     5.54     5.906241     20.30948     39.95871        10     1.154     0.751  30.74   0
        89    365.3895    738.6824 300.0635755 +22.7173183     311.8665     71.94946      1.459     3.77     5.779643     20.30948     40.95638         6     1.039     0.456   5.70   0
        90    409.3549    737.0391 300.0777987 +22.7300243     540.8239     72.05945      1.844     5.40     5.728465     20.30948     33.98082        11     1.062     0.774   9.46   0
        91    217.4978    746.7827 300.0149147 +22.6753067     808.4078     71.91276      1.868     6.86     6.544073     20.30948     64.41508        14     1.434     0.941  22.77   0
        92     51.3259    735.7077 299.9668299 +22.6222968      625.243     72.13268      1.937     4.76     5.945796     20.30948      49.6843         8     1.186     0.726  75.79   0
        93    539.0350    721.6194 300.1232018 +22.7644581     367.0139     72.00447      1.487     4.11     6.008726     20.30948     52.13352         7     1.072     0.779 -35.29   0
        94    545.7833    720.6362 300.1256238 +22.7661977     211.4024     71.98615      1.313     3.47     6.043317     20.30948     27.32437         5     0.780     0.445  16.49   0
        95    508.3177    719.9905 300.1141609 +22.7547862     667.6142     71.93111      1.702     3.88     5.903866     20.30948     55.80186        13     1.168     0.736  -2.46   0
        96    924.7979    716.5674 300.2451388 +22.8785464      4577.48     71.94946      1.863     4.29     5.835216     20.30948     299.7302        40     1.462     1.381  19.00   0
        97    530.2142    717.2437 300.1218750 +22.7605584     1329.137     72.00447      1.757     3.92     6.023774     20.30948     134.5376        21     1.232     1.148  -9.80   0
        98    450.2206    717.1058 300.0970011 +22.7365483     301.0141     71.91276      1.321     4.01     5.818547     20.30948     44.30356         5     0.765     0.668 -40.06   0
        99    611.9329    712.6004 300.1488486 +22.7837082     360.9167     71.93111      1.356     4.34      6.11965     20.30948     41.00028         7     1.139     0.470  -7.61   0
