#   1 NUMBER                 Running object number                                     
#   2 X_IMAGE                Object position along x                                    [pixel]
#   3 Y_IMAGE                Object position along y                                    [pixel]
#   4 ALPHA_J2000            Right ascension of barycenter (J2000)                      [deg]
#   5 DELTA_J2000            Declination of barycenter (J2000)                          [deg]
#   6 FLUX_APER              Flux vector within fixed circular aperture(s)              [count]
#   7 FLUXERR_APER           RMS error vector for aperture flux(es)                     [count]
#   8 FLUX_RADIUS            Fraction-of-light radii                                    [pixel]
#   9 FWHM_IMAGE             FWHM assuming a gaussian core                              [pixel]
#  10 BACKGROUND             Background at centroid position                            [count]
#  11 THRESHOLD              Detection threshold above background                       [count]
#  12 FLUX_MAX               Peak flux above background                                 [count]
#  13 ISOAREA_IMAGE          Isophotal area above Analysis threshold                    [pixel**2]
#  14 A_IMAGE                Profile RMS along major axis                               [pixel]
#  15 B_IMAGE                Profile RMS along minor axis                               [pixel]
#  16 THETA_IMAGE            Position angle (CCW/x)                                     [deg]
#  17 FLAGS                  Extraction flags                                          
         1    696.3322     16.2618 300.3928683 +22.6016328     733.2849     72.02919      1.471     3.12     6.048092     20.30611     89.16643        12     1.030     0.811  43.53   0
         2    502.0428     15.5793 300.3325587 +22.5433022     1236.927     72.01087      1.625     2.63     5.242285     20.30611     141.0099        19     1.261     0.973  43.82   0
         3     74.9052     15.3889 300.1997255 +22.4153622     539.9926      71.9192      1.497     5.17     6.156249     20.30611     54.52593        10     1.273     0.767 -36.18   0
         4    405.6720     13.4558 300.3032412 +22.5138480     909.9244     71.99255      1.540     2.81     5.299292     20.30611     115.2646        18     1.127     0.971  13.46   0
         5    257.7092      6.1721 300.2595561 +22.4674597     314.3156     71.95588      1.712     4.33     5.448879     20.30611     32.59318         6     0.926     0.640 -12.86  16
         6    745.4030      4.2748 300.4120470 +22.6128653     622.0475     69.34114      1.449     3.29     6.410925     20.30611     84.26038        13     1.077     0.809  44.38  16
         7    307.8083      4.4145 300.2757123 +22.4819544     263.9471     69.81524      2.156     4.26     5.488502     20.30611     28.76658         5     1.131     0.457 -58.05  16
         8    177.2747      3.4953 300.2354053 +22.4426059     3857.067     66.74258      1.670     3.23     5.358774     20.30611      436.756        34     1.387     1.209  30.61  24
         9    503.5531      1.4221 300.3376145 +22.5396856     201.2872     56.57795      1.147     3.28     5.228658     20.30611     50.19189         6     1.026     0.477  -8.22  24
        10    243.5839    973.5562 299.9412106 +22.7407780     8051.127     71.99255     10.342    36.65     39.41318     20.30611     165.5721       885    12.023     5.039  65.38  18
        11     91.6729   1012.2501 299.8813975 +22.7062782     5278.044     71.99255     19.981   108.81     82.05385     20.30611     158.1792      2611    22.515    17.471  60.92  27
        12     83.7465    951.1595 299.8988000 +22.6863979      7379.32     71.93754     32.242   121.37     26.69457     20.30611     1359.387      4826    23.727    17.226 -64.78  19
        13    932.0762    970.7622 300.1565712 +22.9464018     585.3733     71.93754      1.877     7.95     4.167591     20.30611     46.39931        18     1.597     1.105  -6.39   0
        14    151.3186    955.6765 299.9183352 +22.7079699       2108.2     72.08413      7.440    16.97      45.4091     20.30611     55.82328        76     2.874     2.785  34.82   3
        15    299.0042   1013.0043 299.9456196 +22.7687110      690.052      71.8274      1.934     4.94      6.22657     20.30611     46.57138         9     1.265     0.546  45.13   3
        16    657.5217    953.7379 300.0765113 +22.8592357     6920.408     72.04751      2.015     4.57     4.314796     20.30611     350.8676        48     1.574     1.469  26.10   0
        17    153.5635   1007.6879 299.9021193 +22.7235461     584.2286     71.95588      2.536     6.16     91.17672     20.30611     34.95424         8     1.148     0.931 -26.66   0
        18    145.3404    955.6446 299.9164871 +22.7061669      865.366     71.99255      3.183     3.37     44.44949     20.30611     43.00063         5     1.087     0.303  53.49   3
        19    644.7009    984.5687 300.0624902 +22.8642359     9621.114     71.95588      2.058     5.06     4.070202     20.30611     518.9619        49     1.549     1.513  64.59   3
        20    538.0365    948.2619 300.0410729 +22.8218430     529.9453     71.99255      2.091     5.76     4.406583     20.30611     40.32377         8     1.260     0.740 -20.06   0
        21    184.6585    999.0610 299.9145925 +22.7304058     1006.876     72.02919      3.125     9.88     81.30991     20.30611     56.21165        19     2.873     0.948  77.37   3
        22    565.0000    944.9869 300.0505352 +22.8289881     1068.813     71.77227      1.706     5.49     4.427655     20.30611     74.15931        16     1.508     0.800  81.84   3
        23    567.0000    944.1023 300.0514457 +22.8293341       1013.1     71.84577      1.536     3.60     4.432038     20.30611     113.0237        12     1.312     0.737  88.60   3
        24    459.6284    940.9781 300.0190282 +22.7962428     912.3864     71.97421      1.870     5.07     4.232935     20.30611     71.91003        22     1.303     1.206  34.62   0
        25    390.3197    938.7896 299.9981668 +22.7748295     6551.261     71.95588      1.935     4.54     4.539373     20.30611     422.5814        45     1.511     1.451  -2.40   0
        26    178.5293    992.0557 299.9149650 +22.7265593     2200.884     71.99255      7.192    17.42      75.8567     20.30611     55.74333        68     3.160     2.670  39.32   3
        27    739.0233    987.0171 300.0910869 +22.8932131     610.7116     71.97421      1.903     8.09     3.949372     20.30611      37.9871        16     1.802     1.014  44.06   0
        28      4.2546   1021.6876 299.8511641 +22.6827409     2988.472     63.08374      5.960    25.57    -36.62114     20.30611     68.52353       146     8.465     2.145   0.26  27
        29    422.7313    925.7653 300.0124892 +22.7808158     606.1837     71.97421      2.321     7.41     4.385341     20.30611     50.40725        11     1.561     0.985   7.58   0
        30    936.7443    917.7373 300.1752710 +22.9325801     2351.044     72.02919      2.123     4.87     4.373628     20.30611     124.4912        37     1.582     1.403 -19.37   0
        31    586.9008    915.0099 300.0671037 +22.8269560     414.5291     71.88249      1.762     5.12     4.524996     20.30611      37.0759         5     1.159     0.640  15.88   0
        32      3.7637   1012.6804 299.8539410 +22.6800138     3263.736     67.60686     25.001    73.51    -32.84989     20.30611     71.34769       756    19.115     7.844 -80.03  26
        33    724.9081    906.5804 300.1128444 +22.8659044     720.6741     71.90085      2.014     6.67     4.487747     20.30611     46.87668        15     1.310     1.021 -20.45   0
        34    219.4454    905.2073 299.9559269 +22.7139471     724.7178     71.99255      4.775     5.14      10.4707     20.30611     29.51028         5     1.053     0.710  -9.60   0
        35    760.4448    901.0153 300.1257305 +22.8749573     1011.136     71.99255      1.854     4.89      4.50222     20.30611     60.52967        20     1.238     1.158  22.17   0
        36    537.2989    901.8497 300.0559339 +22.8083106     463.9866     72.04751      1.948     4.94     4.588573     20.30611     42.45457         7     1.264     0.546 -32.50   0
        37    782.6516    894.5020 300.1347708 +22.8797428     11425.32     72.04751      1.917     4.51     4.514985     20.30611     660.6136        57     1.550     1.469 -14.69   0
        38    176.5081    999.2795 299.9119873 +22.7280225     2216.545     72.08413      5.008    18.13     82.26451     20.30611     68.47196        86     5.086     1.795  41.60  19
        39    972.7802    894.9255 300.1939309 +22.9368261     538.5504     71.97421      2.669     4.53     4.347889     20.30611     35.04623         6     0.966     0.603  28.80   2
        40    828.0079    894.5576 300.1488941 +22.8933493      456.209     71.99255      2.092     5.71     4.510561     20.30611     32.63155         7     1.452     0.633  29.66   0
        41    168.6355    964.8394 299.9207395 +22.7157918      530.463     72.04751      3.456     4.99     53.57574     20.30611      40.1521         5     1.127     0.626 -63.76   3
        42    149.3964    891.1456 299.9387176 +22.6889011     690.0453     71.93754      5.492     4.46     13.54137     20.30611     34.73896         5     1.043     0.630  26.18   0
        43    170.6382    969.5005 299.9198464 +22.7177284     1131.597     71.99255     17.606    14.96     57.64164     20.30611     50.47216        33     4.573     1.361  45.27   3
        44     93.7868    886.1593 299.9230524 +22.6707865     1245.513     71.99255      5.563     6.84     8.358668     20.30611     51.71886        20     1.492     1.128  -8.00   0
        45    488.6052    883.1458 300.0468521 +22.7883469     493.5687     71.97421      1.767     4.51     4.567775     20.30611     47.41937         7     1.036     0.559  64.85   0
        46    834.0866    882.7045 300.1546432 +22.8917687     436.0327     72.15731      1.678     6.19      4.51334     20.30611     34.75249         9     1.085     0.993 -28.88   0
        47     64.4677    878.7256 299.9163567 +22.6598586     359.4678     72.04751      1.915     4.39     6.520495     20.30611     37.54415         5     0.921     0.595  40.52   0
        48    791.2285    876.7366 300.1432204 +22.8772144      1372.17     71.97421      1.780     4.60     4.526208     20.30611     88.36903        21     1.236     1.184  69.63   0
        49    171.4163    977.4338 299.9175086 +22.7202351     1680.015     71.95588      3.908     9.68      63.7579     20.30611     52.40258        28     1.981     1.321  76.64   3
        50    975.8020    876.2188 300.2009556 +22.9323606     453.3889     71.90085      1.734     3.90     4.374499     20.30611     25.31052         5     0.955     0.456 -45.49   0
        51    507.2122    874.8843 300.0553313 +22.7915562     180.1162      71.9192      1.189     3.96     4.601323     20.30611      29.2085         6     0.779     0.576 -47.65   0
        52    829.2012    869.7959 300.1573163 +22.8865999     930.2327     71.79066      2.023     4.98     4.521461     20.30611     58.75561        16     1.333     0.894 -67.31   0
        53    877.2654    861.2221 300.1750924 +22.8985386     632.9964     71.95588      1.921     6.33     4.506581     20.30611     33.83035        13     1.255     0.897  57.61   0
        54    729.0760    860.1823 300.1292275 +22.8538395     757.2876     71.97421      1.715     5.89     4.520754     20.30611     61.81044        15     1.451     0.885  35.22   0
        55    740.7340    857.3969 300.1337667 +22.8565336     679.5809     71.97421      1.780     4.94     4.537323     20.30611     67.95356        16     1.514     0.829 -24.74   0
        56    441.5598    856.4360 300.0408884 +22.7665809     4214.239     72.04751      1.811     4.06     4.714772     20.30611     299.6724        39     1.403     1.368  59.28   0
        57    485.7292    844.7849 300.0584263 +22.7764823     301.8692     71.97421      1.766     3.21      4.78237     20.30611     43.95353         5     1.060     0.481 -32.21   0
        58    219.5590    843.8267 299.9759143 +22.6963872     297.2012     72.02919      1.637     3.63     5.999172     20.30611     30.07098         5     1.028     0.370  -4.78   0
        59    167.2193    842.2714 299.9601448 +22.6802406     818.5082     72.01087      1.815     4.87     7.231721     20.30611      72.2044        11     1.230     0.748 -40.06   0
        60    172.9743    973.9891 299.9191131 +22.7197156      1259.84     71.97421      4.359     5.74     60.85078     20.30611     53.40347        12     1.242     0.833  24.06   3
        61    144.0325    838.8469 299.9540491 +22.6723030     1614.795     72.01087      2.020     4.64     6.957456     20.30611     125.4389        31     1.484     1.398 -34.82   0
        62   1015.8192    828.6201 300.2289159 +22.9306782     2155.677     71.97421      2.049     5.03     4.775775     20.30611     117.9365        34     1.514     1.422  86.75  16
        63     19.6166    829.1610 299.9185289 +22.6321977     301.7033     71.99255      1.338     3.52     4.894383     20.30611     35.34969         5     0.788     0.454 -74.26   0
        64    970.0037    826.9617 300.2151586 +22.9164810     2194.784     72.01087      2.053     4.81     4.646984     20.30611     131.0435        32     1.510     1.313 -21.56   0
        65    674.8681    827.1680 300.1230651 +22.8281210     461.8375     71.97421      1.805     4.48     4.508545     20.30611     39.82982         6     0.823     0.692 -72.04   0
        66    753.5584    820.8508 300.1496431 +22.8498879      479.246     71.97421      1.691     6.36     4.661131     20.30611     44.23459        13     1.200     0.947  10.71   0
        67    621.6754    814.6830 300.1105494 +22.8085971     4936.536     72.08413      1.731     4.07     4.562418     20.30611     364.3845        34     1.327     1.255   4.86   0
        68     20.2677    979.2415 299.8699430 +22.6753902      717.275     71.95588      3.993     4.30    -5.416736     20.30611     33.01069         5     0.998     0.529 -38.27   1
        69    424.0395    811.7820 300.0499480 +22.7485211     650.6506     71.99255      1.639     4.20     5.090829     20.30611     60.05395        14     1.216     0.780 -18.35   0
        70    171.8026    808.3911 299.9725805 +22.6719040      1434.81     71.79066      1.890     4.54     5.753586     20.30611     119.9662        25     1.326     1.288 -76.79   0
        71    642.3162    806.9583 300.1194906 +22.8125666     777.6513     71.93754      1.674     4.37     4.551395     20.30611     59.55577        14     1.095     0.941  -1.48   0
        72    225.6609    984.3851 299.9321151 +22.7385037     5189.131     71.93754      9.701    39.86     61.78424     20.30611     94.18356       471     8.561     5.150 -56.92  19
        73   1015.0076    794.8884 300.2396261 +22.9207482      1204.76     71.88249      2.034     6.03     5.083253     20.30611     68.97589        23     1.435     1.226  46.92  16
        74    797.8548    794.5933 300.1719862 +22.8556226     4070.933     71.97421      1.698     3.88     4.780172     20.30611     288.5705        35     1.316     1.281 -24.40   0
        75    206.1337    788.4026 299.9897508 +22.6764717     371.2794     71.97421      1.428     5.99     5.335173     20.30611     36.47203        11     1.183     0.852  60.44   0
        76    514.7244    786.8240 300.0862915 +22.7685481     600.6263     71.99255      1.658     3.65     5.038252     20.30611      60.3239        13     0.991     0.915 -30.62   0
        77    161.0076    784.4980 299.9769881 +22.6618168     1012.815     71.84577      1.920     6.02     5.483876     20.30611     72.70803        22     1.346     1.260 -50.71   0
        78    576.2523    780.3787 300.1075479 +22.7851407     465.4152     71.97421      1.573     5.84     4.844404     20.30611      40.3436        13     1.044     0.965  10.94   0
        79    310.6909    776.8357 300.0260310 +22.7045121     53642.12     71.93754      1.770     3.78     5.307291     20.30611     4233.146        98     1.520     1.502  -4.38   0
        80    981.5806    775.5839 300.2354687 +22.9051944     940.5539     71.95588      1.846     6.13     4.995483     20.30611     69.35593        19     1.393     1.116  -8.65   0
        81    568.7148    776.0245 300.1066150 +22.7816323     1671.181     71.93754      1.603     3.53     4.901628     20.30611     147.2411        23     1.181     1.122 -58.71   0
        82    238.5385    775.0541 300.0041658 +22.6823636     474.3073     72.02919      1.850     6.19     5.296409     20.30611     44.39741        10     1.423     0.784 -24.48   0
        83    597.7957    772.0907 300.1169516 +22.7892192     885.4844     71.88249      1.620     4.51     4.800854     20.30611     73.50565        17     1.213     1.014  21.81   0
        84    608.5638    770.3774 300.1208628 +22.7919546     605.3119     71.99255      1.765     4.75     4.762105     20.30611     50.57972        15     1.226     1.063   7.08   0
        85    929.7889    768.1965 300.2217105 +22.8875628     360.3662     71.79066      2.491     3.81     5.014454     20.30611      24.5574         5     0.954     0.438 -44.66   0
        86    713.6908    766.6345 300.1548359 +22.8223819     531.8156     71.95588      1.694     5.37     4.893424     20.30611     60.77482        10     1.062     0.766  25.94   0
        87    508.7086    764.8096 300.0915716 +22.7604292     281.6868      71.9192      1.478     3.71     5.194524     20.30611     33.85697         5     1.019     0.388  -3.59   0
        88    751.4992    756.8322 300.1698056 +22.8308958     865.8206     71.95588      1.804     5.13     5.075943     20.30611     65.91241        19     1.339     1.106  86.54   0
        89    360.4190    754.1099 300.0488879 +22.7129054     31681.02     71.90085      1.711     3.41     5.417433     20.30611     2845.767        70     1.437     1.384  13.01   0
        90    374.9281    754.6841 300.0532164 +22.7174202     2121.454     72.08413      1.704     3.49     5.391652     20.30611      184.184        27     1.287     1.153   4.78   0
        91    883.7013    750.2574 300.2131637 +22.8686088     2807.707     72.06582      1.779     3.92      5.28093     20.30611     198.7936        29     1.319     1.233  -7.10   0
        92    371.7048    748.6520 300.0541731 +22.7147237     579.3548     72.04751      1.495     4.01     5.418196     20.30611      56.4462         9     1.164     0.586 -34.61   0
        93    641.5236    746.3434 300.1389405 +22.7949346     1000.513     72.01087      1.528     3.59     4.869657     20.30611     93.42209        18     1.160     0.990  48.34   0
        94    243.1903    746.1371 300.0150078 +22.6754674      895.174     71.90085      1.712     3.97     5.358501     20.30611     78.88918        16     1.240     0.905  -3.90   0
        95    477.7769    746.1086 300.0880168 +22.7457925     318.8631     71.90085      1.676     4.67     5.348527     20.30611     40.06822         5     1.014     0.610  18.15   0
        96     48.0991    741.5946 299.9558316 +22.6156486     554.8355     71.86414      1.815     3.90     5.164342     20.30611     59.74076        10     1.034     0.775  73.45   0
        97    488.7153    740.8599 300.0931277 +22.7475654     704.9559     72.08413      1.517     3.23      5.35954     20.30611     90.47379        15     1.058     0.936   9.93   0
        98    889.3909    738.3592 300.2188042 +22.8668963     492.1107     71.97421      1.659     5.38     5.422203     20.30611       50.029        13     1.168     1.037 -35.49   0
        99    637.0601    737.8897 300.1402964 +22.7911710     366.9711     72.06582      1.858     5.76     4.916953     20.30611     37.28424         7     1.420     0.658 -40.53   0
