#   1 NUMBER                 Running object number                                     
#   2 X_IMAGE                Object position along x                                    [pixel]
#   3 Y_IMAGE                Object position along y                                    [pixel]
#   4 ALPHA_J2000            Right ascension of barycenter (J2000)                      [deg]
#   5 DELTA_J2000            Declination of barycenter (J2000)                          [deg]
#   6 FLUX_APER              Flux vector within fixed circular aperture(s)              [count]
#   7 FLUXERR_APER           RMS error vector for aperture flux(es)                     [count]
#   8 FLUX_RADIUS            Fraction-of-light radii                                    [pixel]
#   9 FWHM_IMAGE             FWHM assuming a gaussian core                              [pixel]
#  10 BACKGROUND             Background at centroid position                            [count]
#  11 THRESHOLD              Detection threshold above background                       [count]
#  12 FLUX_MAX               Peak flux above background                                 [count]
#  13 ISOAREA_IMAGE          Isophotal area above Analysis threshold                    [pixel**2]
#  14 A_IMAGE                Profile RMS along major axis                               [pixel]
#  15 B_IMAGE                Profile RMS along minor axis                               [pixel]
#  16 THETA_IMAGE            Position angle (CCW/x)                                     [deg]
#  17 FLAGS                  Extraction flags                                          
         1    166.6894     16.5674 300.2353581 +22.4424613     1940.313     69.52959      1.310     2.42    -9.352921     19.62641      240.455        21     1.060     0.959  73.12   0
         2    728.2437      8.7480 300.4126322 +22.6084488     290.5278     69.60046      1.195     2.97    -8.319043     19.62641     54.39387         8     0.859     0.650  81.80   0
         3    282.7424      8.8642 300.2739329 +22.4750326     627.2186     69.61817      1.297     2.44    -9.176336     19.62641     79.32743         7     0.722     0.624  81.08   0
         4    765.8792      3.8641 300.4259421 +22.6183129     431.7516     65.85121      1.563     3.58    -8.694866     19.62641     38.80048         9     0.941     0.688  80.17  16
         5    786.0087      1.1907 300.4330816 +22.6235707     334.1605     53.17562      0.907     2.42    -8.926222     19.62641     97.82512         6     0.883     0.382  -6.60  24
         6    171.6217   1011.7189 299.9135643 +22.7293420     1138.548     69.52959      7.167    10.46     23.06273     19.62641     47.68528        21     1.850     1.649  87.34  19
         7    130.0508   1023.2627 299.8968897 +22.7201610     580.7593     56.39307      3.238     5.74     25.79112     19.62641     38.64587         7     1.965     0.472 -14.90  25
         8     78.3803   1013.5217 299.8840104 +22.7018481      2856.22     69.56503     18.524    56.20     13.33216     19.62641     68.56763       767    11.502     7.621  37.47  27
         9     76.0366    933.1342 299.9094498 +22.6781185     2027.404     69.56503     17.921    21.40     -7.56121     19.62641     49.72249        96     4.363     2.916  12.67   3
        10     60.9861    974.0333 299.8914631 +22.6853124     2258.093     69.56503     19.632    29.23    -1.237744     19.62641     56.13805       203     7.674     3.090  55.24   3
        11     77.6895    963.0991 299.9002102 +22.6871984     2587.888     69.72433     26.585    57.64    0.2959306     19.62641     69.02159       839    14.152     6.514  68.31  19
        12    729.9191    999.4537 300.0912521 +22.8934318     253.7921     69.60046      1.127     2.97    -13.61854     19.62641     52.30743         7     0.882     0.591 -51.68   0
        13    543.1190   1004.0763 300.0315831 +22.8386998     1054.964     69.67127      1.160     2.03     -12.7069     19.62641     207.6105        13     0.960     0.743  52.57   0
        14     70.7033    927.8063 299.9095273 +22.6749902     1741.793     69.45864     23.535    45.17    -8.994925     19.62641     47.43631       342    12.464     4.543 -51.06  19
        15    629.5426    999.1512 300.0600904 +22.8632255       4062.8     69.61817      1.148     1.84    -13.79232     19.62641     678.4736        25     1.008     0.896 -74.29   3
        16    165.8434   1009.9291 299.9123516 +22.7270936     1235.385     69.52959      8.512    12.70     22.47799     19.62641     44.84158        27     3.252     1.381  81.82  19
        17    169.6660   1004.0723 299.9154461 +22.7265641     1158.044     69.60046      6.276     9.40     20.16702     19.62641     38.21915        20     2.251     1.096 -79.08   3
        18    100.2574    980.4481 299.9015729 +22.6989473     1128.865     69.61817      3.113     3.89      10.0284     19.62641     31.81075         5     1.493     0.290 -78.45   2
        19    922.4101    982.5673 300.1567362 +22.9463290     408.8038     69.56503      0.994     2.49    -13.54748     19.62641     67.01514         6     0.819     0.455 -74.02   0
        20    161.9961    986.5822 299.9187568 +22.7192498     784.1148     69.49413      4.734     7.99     14.20639     19.62641     36.42233        12     1.555     1.148 -89.07   0
        21    351.3393   1010.7724 299.9697384 +22.7830446     195.8296     69.56503      1.083     3.38     -13.1067     19.62641     43.79063         5     0.760     0.437 -72.83   0
        22    216.0737    997.8387 299.9318972 +22.7387173     2214.084     69.54732     13.090    32.78     16.50397     19.62641     54.43359       176     8.197     3.639 -64.50  19
        23    190.3652   1002.7371 299.9223129 +22.7323990     964.7688     69.56503      5.840     8.20     19.21687     19.62641      43.4369        16     1.525     1.234 -34.73   3
        24    237.5010    988.6855 299.9415368 +22.7425301     4028.106     69.72433      6.634    24.43     7.501471     19.62641     113.0165       204     7.352     2.254  69.38  19
        25    194.8437    996.9526 299.9255879 +22.7320870     1596.238     69.60046      6.275     9.26     16.78725     19.62641     60.12764        20     1.948     1.227  32.35   3
        26    647.9611    966.2753 300.0765289 +22.8593245     3276.294     69.52959      1.214     2.01    -13.32022     19.62641     568.4813        26     1.027     0.976  48.49   0
        27    125.5610    965.2396 299.9143841 +22.7021917     783.2702     69.63588      5.925     6.95     5.559304     19.62641     30.26249         9     1.556     0.870  64.95   0
        28    229.5138    985.0813 299.9402276 +22.7390987     1983.797     69.70664      9.367    17.49      9.21494     19.62641     56.29539        81     5.273     1.612  88.00   3
        29    556.2584    957.0008 300.0509987 +22.8291458     690.0617     69.52959      1.161     2.64    -12.79946     19.62641     122.7076        10     0.943     0.631  73.74   0
        30    100.8611    956.1483 299.9096702 +22.6921680     1053.925     69.61817      9.885     9.40     2.078035     19.62641     35.93974        20     2.443     1.009 -15.50   3
        31    104.0493    950.4473 299.9125162 +22.6914926     1072.439     69.60046     10.337    10.58    0.1189714     19.62641     35.78746        16     2.207     1.412 -11.78   3
        32     93.1003    953.9111 299.9079877 +22.6891959       1402.7     69.72433     12.818    12.25    0.6498878     19.62641     49.04012        19     3.376     1.237 -88.45   3
        33     88.3565    939.4542 299.9112196 +22.6836296     1358.057     69.56503      8.449     9.34    -4.658979     19.62641     41.98468        19     1.714     1.420  -9.92   3
        34    926.9554    930.1005 300.1752339 +22.9326355     989.8697     69.58276      1.165     1.92    -12.97806     19.62641     206.9031        16     0.952     0.859 -25.05   0
        35    380.9015    951.6661 299.9981742 +22.7749803     3294.235     69.65357      1.150     1.92    -12.92604     19.62641      549.561        21     0.935     0.889 -33.99   0
        36    715.6530    918.4719 300.1131713 +22.8659226     354.8965     69.54732      0.996     2.19     -13.0295     19.62641     58.74863         5     0.669     0.484  15.33   0
        37    450.2405    953.3701 300.0191888 +22.7962840     429.9812     69.58276      1.164     3.11    -13.03458     19.62641     79.82957         8     0.907     0.688  33.94   0
        38    750.7205    913.4032 300.1257449 +22.8749881      583.296     69.47639      1.233     2.15    -13.03922     19.62641     96.42704         8     0.743     0.689  68.10   0
        39    772.9630    906.9722 300.1347676 +22.8798149     5609.665     69.56503      1.151     1.77    -12.88666     19.62641     1198.102        28     0.957     0.896  24.93   0
        40    963.8788    906.6015 300.1943955 +22.9369626     202.7551     69.47639      0.971     3.39    -13.20947     19.62641      42.6237         5     0.826     0.484  54.51   0
        41    818.4160    907.1359 300.1488772 +22.8934949     198.0083     69.54732      0.857     2.20    -12.76864     19.62641     69.21986         5     0.860     0.345 -40.02   0
        42     84.3195    898.6939 299.9232307 +22.6707403     326.5431     69.68896      1.092     2.26    -9.844544     19.62641     56.10544         5     0.678     0.464 -84.73   0
        43    781.3370    889.0155 300.1432210 +22.8771745     646.4537     69.52959      1.026     1.76    -12.77641     19.62641     139.2373        10     0.760     0.670   9.22   0
        44    470.6051    887.2197 300.0470550 +22.7834307     178.6128     69.54732      1.047     3.49    -12.51365     19.62641      29.0349         5     0.747     0.470 -76.50   0
        45    819.4555    882.3978 300.1572525 +22.8867081     412.1616     69.51186      0.953     2.31    -12.69256     19.62641     63.56942         5     0.656     0.477  71.62   0
        46    719.3754    872.7875 300.1291991 +22.8539331     321.7856     69.56503      1.067     2.15    -12.80731     19.62641      58.7999         5     0.675     0.469 -75.58   0
        47    432.0113    869.3476 300.0408634 +22.7667231     2052.753     69.56503      1.104     1.76      -12.663     19.62641     410.7104        18     0.923     0.829 -57.31   0
        48    730.7739    869.9760 300.1336646 +22.8565455     256.3222     69.52959      1.073     2.35    -12.81264     19.62641     57.63837         7     0.756     0.597  88.73   0
        49    157.3391    855.1274 299.9600918 +22.6801871     325.9965     69.60046      1.288     3.33    -11.36772     19.62641     54.48605         9     1.058     0.570  76.05   0
        50    134.2715    851.8027 299.9540063 +22.6723073     705.2304     69.51186      1.229     2.92    -11.64625     19.62641      117.316        12     0.982     0.771  84.11   0
        51   1006.0809    840.8492 300.2289550 +22.9307396     1119.058     69.60046      1.214     2.12    -13.08727     19.62641     189.3114        15     0.968     0.801  69.22   0
        52    960.2117    839.3041 300.2151533 +22.9165454     941.8696     69.47639      1.082     2.04    -12.89692     19.62641     174.0324        12     0.809     0.725  71.71   0
        53    166.3656    833.6574 299.9698819 +22.6767449     209.5812     69.58276      0.983     2.47    -11.71616     19.62641     43.22238         5     0.698     0.460 -74.15   0
        54    743.6794    833.1840 300.1496569 +22.8498598     308.0891     69.58276      0.977     2.11    -12.49365     19.62641     57.64862         5     0.682     0.455 -78.40   0
        55    611.9065    827.2656 300.1105435 +22.8086350     2275.699     69.68896      1.112     1.67    -12.35831     19.62641     496.1805        19     0.985     0.755  61.25   0
        56    414.2107    824.5745 300.0498937 +22.7485428     343.9713     69.56503      1.210     2.12    -12.38858     19.62641     54.96387         6     0.666     0.602  82.53   0
        57    161.9858    821.1756 299.9725816 +22.6718527     766.2164     69.58276      1.382     2.03    -11.92132     19.62641     127.0211        10     1.103     0.632  70.73   0
        58    632.3311    819.5663 300.1194079 +22.8125535     320.9285     69.56503      0.997     1.91    -12.32148     19.62641     67.91344         5     0.642     0.472 -20.30   0
        59   1004.9165    807.2075 300.2395380 +22.9207316     602.8845     69.49413      1.133     2.11    -13.06203     19.62641     103.7951         9     0.908     0.632  39.79   0
        60    787.9805    806.9938 300.1719804 +22.8556301     1986.456     69.52959      1.110     1.78     -12.2454     19.62641     439.9951        16     0.856     0.767  65.81   0
        61    505.0862    799.6288 300.0862842 +22.7686591     324.9191     69.56503      1.160     2.44    -12.16509     19.62641     60.02608         6     0.711     0.614  68.75   0
        62    151.4783    797.8336 299.9769098 +22.6620081     461.2118     69.54732      1.082     2.08    -12.27866     19.62641     92.10471         9     0.788     0.667  -6.08   0
        63    301.0201    789.7374 300.0260242 +22.7045814     25883.09     69.52959      1.166     1.88    -12.03352     19.62641      4821.79        57     1.092     1.038  89.54   0
        64    558.8243    788.6725 300.1065738 +22.7816394     753.4878     69.60046      1.032     1.71    -12.13594     19.62641     158.4178         9     0.774     0.650 -50.95   0
        65    971.3755    787.6293 300.2354473 +22.9050565     376.5705     69.56503      1.121     3.40    -12.69341     19.62641     92.52105         9     1.066     0.647  68.34   0
        66    587.6912    784.5010 300.1169170 +22.7891027     440.7473     69.72433      1.146     2.19    -12.12498     19.62641      73.7692         8     0.789     0.649 -46.76   0
        67    598.6115    783.0706 300.1207820 +22.7919682      270.031     69.58276      1.109     3.31     -12.1195     19.62641     57.60424         7     1.047     0.484  86.30   0
        68    741.5121    769.6229 300.1696600 +22.8309702     363.9844     69.49413      0.986     2.18    -12.17547     19.62641     71.53619         5     0.659     0.462 -66.07   0
        69    365.0959    767.5828 300.0531561 +22.7174607     1038.247     69.47639      1.123     1.90     -11.9243     19.62641     167.2324        11     0.875     0.660  85.52   0
        70    350.7478    766.9927 300.0488857 +22.7129854     15412.68     69.54732      1.171     1.88    -11.86818     19.62641      2906.92        48     1.049     1.019 -76.74   0
        71    873.7147    762.7216 300.2131017 +22.8686292     1265.546     69.68896      1.081     1.79    -12.07333     19.62641     281.8003        14     0.814     0.797  32.61   0
        72    631.5885    758.9326 300.1389012 +22.7949348     532.9316     69.56503      1.295     2.33    -12.09904     19.62641     76.42899         9     0.817     0.673  18.70   0
        73    233.3205    758.9017 300.0150075 +22.6754196     428.4289     69.68896      1.098     2.00    -12.15676     19.62641     63.91844         7     0.689     0.611  86.71   0
        74    478.9546    753.8235 300.0930519 +22.7476805     402.3927     69.58276      1.340     2.06    -12.04225     19.62641     83.48351         7     0.815     0.483  49.24   0
        75    879.7894    750.1436 300.2190866 +22.8668395     256.4415     69.54732      1.009     2.70    -12.04995     19.62641     56.00453         5     0.765     0.467  48.79   0
        76    230.6222    743.2022 300.0192746 +22.6701090     286.8627     69.51186      1.056     2.05    -12.15834     19.62641     50.42562         5     0.683     0.457 -71.39   0
        77    523.7732    732.1304 300.1140548 +22.7549041     345.3733     69.56503      1.282     3.92    -11.94369     19.62641     54.69481         6     0.922     0.582 -75.69   0
        78    940.2125    728.0052 300.2451246 +22.8785959     2269.947      69.4409      1.118     1.64    -12.09851     19.62641     498.9193        17     0.852     0.819 -65.20   0
        79    545.6065    729.0175 300.1218628 +22.7605608     662.6971     69.52959      1.054     1.98    -11.90938     19.62641     132.4195         8     0.725     0.658  23.10   0
        80    928.6915    719.3773 300.2443386 +22.8726653     819.7639     69.49413      1.046     1.93    -12.00174     19.62641     133.8316        11     0.810     0.680 -79.69   0
        81    291.5922    713.4370 300.0479082 +22.6798751     462.6869     69.56503      1.237     2.73    -11.60422     19.62641     59.86946         8     0.900     0.582 -41.15   0
        82    754.7729    710.5640 300.1929999 +22.8179963     1252.666     69.56503      1.085     1.74     -12.0383     19.62641     234.5502        15     0.893     0.776  81.66   0
        83    959.8766    709.4294 300.2572976 +22.8791557     810.3267     69.54732      1.060     2.19     -12.0946     19.62641     143.4208        11     0.850     0.698  71.35   0
        84    837.3783    696.5899 300.2232846 +22.8387508     342.5561     69.54732      1.199     2.25    -11.69466     19.62641     65.47245         5     0.696     0.483 -85.43   0
        85    873.3488    687.6299 300.2374099 +22.8469610     71929.55     69.58276      1.072     1.81    -11.63631     19.62641     12842.94        95     1.159     1.064  76.02   0
        86   1020.6359    689.3065 300.2827907 +22.8915855     573.9114     67.31372      1.092     2.01    -12.30906     19.62641     101.0538         9     0.771     0.647  74.23  16
        87    725.7330    687.9409 300.1913099 +22.8027954     388.4679     69.60046      1.176     2.48    -12.00612     19.62641     91.16368         8     0.885     0.715 -87.01   0
        88    559.5906    676.5536 300.1432761 +22.7497030     719.7674     69.58276      1.072     2.08    -11.35033     19.62641     123.5841        12     0.804     0.781 -32.86   0
        89    740.8648    673.8228 300.2006145 +22.8032800     4537.597     69.54732      1.128     1.80    -12.03245     19.62641     936.9683        25     0.948     0.887 -73.11   0
        90    242.4399    669.2445 300.0469967 +22.6524517     2327.895     69.63588      1.134     2.06    -11.70338     19.62641     398.8777        18     0.982     0.780  75.19   0
        91    324.3387    667.0934 300.0731590 +22.6764125     534.4377     69.65357      1.107     2.29     -11.4731     19.62641     90.53979         7     0.711     0.619  61.17   0
        92    199.5954    665.1317 300.0350167 +22.6384134     322.8264     69.52959      1.226     3.22    -11.90576     19.62641     54.36992         7     0.944     0.595 -61.81   0
        93    532.7296    662.5111 300.1394808 +22.7376171     350.0551     69.72433      0.962     2.25    -11.28395     19.62641     64.40848         5     0.683     0.459  22.96   0
        94    524.3239    654.7310 300.1393941 +22.7328635     1500.559     69.65357      1.096     2.03    -11.23809     19.62641     242.9643        15     0.867     0.784  79.84   0
        95    514.6349    648.4720 300.1384134 +22.7281615     683.0416     69.56503      1.073     2.23    -11.18647     19.62641      100.969        11     0.873     0.697  69.41   0
        96    177.6974    644.5750 300.0348941 +22.6259469     406.7341     69.49413      1.191     2.31    -11.91878     19.62641     61.77533         6     0.813     0.458  87.27   0
        97    192.2355    643.0521 300.0399072 +22.6298738     367.3733     69.58276      1.192     2.46    -11.82576     19.62641     54.43749         5     0.758     0.483 -35.16   0
        98    248.9449    640.0435 300.0585120 +22.6460306      291.781     69.56503      1.163     2.04    -11.48647     19.62641     46.06419         5     0.598     0.571   4.38   0
        99    961.3404    639.2537 300.2805730 +22.8594411     199.2478     69.61817      1.087     2.54    -11.69045     19.62641      37.4307         5     0.715     0.451  74.66   0
