#   1 NUMBER                 Running object number                                     
#   2 X_IMAGE                Object position along x                                    [pixel]
#   3 Y_IMAGE                Object position along y                                    [pixel]
#   4 ALPHA_J2000            Right ascension of barycenter (J2000)                      [deg]
#   5 DELTA_J2000            Declination of barycenter (J2000)                          [deg]
#   6 FLUX_APER              Flux vector within fixed circular aperture(s)              [count]
#   7 FLUXERR_APER           RMS error vector for aperture flux(es)                     [count]
#   8 FLUX_RADIUS            Fraction-of-light radii                                    [pixel]
#   9 FWHM_IMAGE             FWHM assuming a gaussian core                              [pixel]
#  10 BACKGROUND             Background at centroid position                            [count]
#  11 THRESHOLD              Detection threshold above background                       [count]
#  12 FLUX_MAX               Peak flux above background                                 [count]
#  13 ISOAREA_IMAGE          Isophotal area above Analysis threshold                    [pixel**2]
#  14 A_IMAGE                Profile RMS along major axis                               [pixel]
#  15 B_IMAGE                Profile RMS along minor axis                               [pixel]
#  16 THETA_IMAGE            Position angle (CCW/x)                                     [deg]
#  17 FLAGS                  Extraction flags                                          
         1    741.8071     14.7057 300.4198906 +22.6054958     452.7851     69.37968      1.239     3.57     -7.79338      19.6041     48.76667         7     0.833     0.628  72.49   0
         2    326.5449      4.0828 300.2940663 +22.4780376     234.5564     66.42753      1.393     4.77    -8.441153      19.6041     38.26637         7     0.955     0.677 -29.64  16
         3     88.6036   1015.7489 299.8913018 +22.6968605     1354.908     69.48595     12.592    17.28     11.32521      19.6041      39.8474        38     3.108     2.671  45.20  19
         4    637.2056   1021.4515 300.0600608 +22.8632505     4090.833     64.51149      1.108     1.90      -13.285      19.6041     697.7447        24     0.992     0.874  68.51  27
         5    642.7771   1019.2050 300.0625274 +22.8642785     4554.048     69.46825      1.159     1.88    -13.26453      19.6041     851.3685        27     1.029     0.905 -69.79  18
         6    204.9437   1020.5127 299.9258977 +22.7331794     2751.449     67.67476     11.837    31.11     5.368749      19.6041     82.03193       218     5.807     4.628  15.33  27
         7    242.2317   1010.1225 299.9408713 +22.7414034     4635.867     69.46825     10.078    33.75    -3.344967      19.6041     107.6092       592     9.404     5.410  56.38  27
         8    223.6885   1018.7532 299.9322966 +22.7383063     3414.863     69.46825      8.343    27.58     1.223472      19.6041     68.58714       264     5.542     4.258  42.14  27
         9    180.3206   1020.9924 299.9180894 +22.7259196     787.3507     66.13065      2.853     4.83     10.46091      19.6041     30.70933         5     2.017     0.328  67.20  19
        10     75.6131   1016.3317 299.8870769 +22.6931240     1297.038     69.50365     12.386    13.51     6.300376      19.6041     50.41456        35     3.630     1.398  11.79  19
        11     80.2559   1021.6729 299.8867794 +22.6960492     1711.279     63.72508      8.673    12.33     9.149703      19.6041     53.64656        41     2.450     1.726 -25.13  27
        12     89.7686   1023.3744 299.8891801 +22.6993951     837.8445     55.67012      4.762     6.31     13.52848      19.6041     35.45605        10     1.713     0.653   1.90  27
        13     71.3804   1021.7574 299.8839951 +22.6934064     1208.531     63.33793      8.984    10.35     5.442389      19.6041     46.58015        22     2.066     1.517  34.35  27
        14     60.6895   1006.7379 299.8855663 +22.6858914     1687.611     69.57439     15.402    24.58   -0.7284949      19.6041     47.70766        86     5.545     3.025 -14.78  27
        15     76.6016    953.0408 299.9079945 +22.6752892     1835.313     69.48595     21.820    29.65    -6.196911      19.6041     46.91825       185     8.153     2.993 -81.03   3
        16     64.1039    993.4974 299.8909387 +22.6831244     2031.107     69.66272     19.136    26.59    -1.775867      19.6041     49.75241       141     4.944     3.972  36.17  19
        17    170.0976   1009.3196 299.9187144 +22.7195037     945.3806     69.60973      6.156     7.94     9.850471      19.6041     49.65028        12     1.843     0.957  59.63   3
        18    117.8371   1011.5964 299.9017355 +22.7044547     529.6577     69.52134      4.794     4.88     12.91958      19.6041     33.83885         5     1.126     0.599  61.36   0
        19    170.5963   1014.0153 299.9173401 +22.7209990     1133.686     69.34422      4.696     8.09     10.76059      19.6041     55.80318        18     1.792     1.195 -20.23  19
        20     65.2041    966.9384 299.8999291 +22.6758464     1561.102     69.48595     15.102    17.87    -5.483122      19.6041     54.46541        67     5.030     1.763 -70.67   3
        21     84.9429    988.3808 299.8990777 +22.6879202     2613.641     69.48595     25.025    47.79     3.104767      19.6041     63.28362       516     9.590     6.610  64.32  19
        22    151.0655    992.0959 299.9184100 +22.7088509     532.9458     69.59206      2.056     4.50     7.523611      19.6041     28.42883         7     1.578     0.365 -36.41   0
        23    655.5362    988.6192 300.0764628 +22.8593350     3327.878     69.46825      1.126     2.07    -12.95747      19.6041     488.0117        21     0.966     0.859  38.13   0
        24    177.8210   1023.3608 299.9165413 +22.7258472      830.631     55.78047      3.823     5.90     11.28491      19.6041     46.20492         9     1.603     0.612  23.89  27
        25    246.6200    982.7586 299.9511471 +22.7348795     136.7882     69.52135      0.930     2.14    -6.680556      19.6041     50.59688         5     0.684     0.460  72.07   0
        26    564.1204    979.2829 300.0510418 +22.8292189     700.2706     69.60973      1.117     2.01    -12.86817      19.6041     129.8207         9     0.818     0.612 -22.99   0
        27    102.8804    975.9916 299.9086842 +22.6897602      1055.85     69.43284      7.188     7.71     2.938002      19.6041     36.59705        12     1.757     0.946 -76.07   3
        28    176.5394   1016.4955 299.9183790 +22.7234951     849.1453     69.57439      5.071     4.82     10.02272      19.6041     31.19039         5     1.137     0.579  56.84  17
        29    929.9937   1005.1394 300.1566011 +22.9464245      357.227     69.43284      1.132     2.54    -13.06276      19.6041     85.62238         9     0.983     0.539  89.13   0
        30    457.7824    975.9623 300.0190299 +22.7963435     494.1071     69.48595      1.311     2.50    -12.94411      19.6041     78.16267         7     0.697     0.673 -80.86   0
        31    388.5096    973.9517 299.9981348 +22.7749675       3291.7     69.48595      1.132     1.88    -12.88469      19.6041     540.0073        25     0.976     0.941   6.49   0
        32    115.3225    972.3031 299.9137506 +22.6924415     895.3765     69.60973      4.989     6.22     2.017338      19.6041     39.47857         9     2.073     0.525 -65.18   2
        33    111.7946    973.1953 299.9123641 +22.6916371     787.4866     69.34422      6.887     7.23     2.239808      19.6041     26.18421         8     2.138     0.685   6.83   3
        34     95.6455    961.7676 299.9110685 +22.6835111     1131.386     69.53903      9.811     9.90    -1.355477      19.6041     49.16864        21     2.098     1.303 -57.99   1
        35     83.9432    955.3932 299.9095089 +22.6781689     1864.493     69.48595     16.862    19.96    -4.889729      19.6041      48.2053        79     4.105     2.696  52.01   3
        36    934.6609    952.3880 300.1752374 +22.9326835     1149.527     69.45055      1.186     2.04    -12.86775      19.6041      167.597        13     0.906     0.748 -18.41   0
        37    723.7593    941.3635 300.1131007 +22.8662511     391.5763     69.57439      1.593     5.47    -12.56432      19.6041      48.3893         9     1.384     0.609  53.62   0
        38     98.7781    938.8721 299.9194965 +22.6778922     1139.823     69.50365      6.396    10.15       -7.756      19.6041     34.15345        16     2.659     1.079  27.78   2
        39    758.1914    935.5049 300.1257350 +22.8749012     484.0824     69.37968      1.074     2.33    -12.53723      19.6041     85.02304         7     0.720     0.662 -74.57   0
        40    535.4286    936.2250 300.0561327 +22.8082575     156.8988     69.48595      1.114     3.39    -12.50973      19.6041     28.46975         5     0.735     0.453  69.93   0
        41    780.5922    929.3159 300.1347296 +22.8798458     5620.477     69.41512      1.060     1.79    -12.47268      19.6041     985.6486        27     0.948     0.893  53.84   0
        42    825.8593    928.9937 300.1489403 +22.8933333     145.6437     69.45055      1.046     2.29    -12.47268      19.6041     57.54945         5     0.771     0.466  38.33   0
        43    971.6609    928.6469 300.1945058 +22.9369650     273.3264     69.52135      1.197     2.50    -12.91478      19.6041     45.85403         5     0.722     0.435  20.13   0
        44    484.9720    917.9659 300.0463753 +22.7878752     373.0419     69.50365      1.327     4.39    -12.51411      19.6041     41.67444         6     1.393     0.395 -45.99   0
        45     76.5050    973.3093 299.9013647 +22.6810671     2204.452     69.66272     18.604    25.79    -2.106812      19.6041     59.98071       166     7.026     2.628 -24.62   3
        46     87.5560    944.2353 299.9142642 +22.6760575     1683.056     69.53903     16.814    22.01     -7.13824      19.6041     46.11795        84     5.378     2.501  67.59   3
        47    972.3157    910.3645 300.2006631 +22.9319127     256.3239     69.46825      1.249     3.22    -12.83204      19.6041     55.21867         5     0.968     0.386  73.02   0
        48    789.2021    911.1468 300.1433284 +22.8772148     608.3723     69.45055      1.077     1.93    -12.43874      19.6041     149.0396         9     0.910     0.617 -49.28   0
        49    827.2137    904.7357 300.1572610 +22.8867776     402.1377     69.45055      1.029     1.85    -12.43123      19.6041     72.69064         6     0.665     0.545 -43.26   0
        50    875.5605    896.2013 300.1751084 +22.8988295     313.2789     69.50365      1.277     4.23    -12.44105      19.6041     36.16787         7     1.065     0.479  82.08   0
        51    726.8742    895.2430 300.1290881 +22.8539521     258.1852     69.46825      1.095     2.60    -12.37581      19.6041     62.13887         7     0.795     0.597  24.39   0
        52    439.5641    891.6067 300.0408285 +22.7666849     2138.589     69.50365      1.100     1.93    -12.43312      19.6041     348.1652        18     0.973     0.782  41.10   0
        53    738.0975    892.0483 300.1336244 +22.8564026     248.4416     69.52134      0.918     1.97    -12.37806      19.6041     71.17538         5     0.597     0.557 -84.15   0
        54    165.0312    877.2328 299.9601474 +22.6801298       382.25     69.50365      1.065     2.25     -10.6857      19.6041     69.20461         7     0.812     0.548 -25.34   0
        55    141.9599    874.4604 299.9538810 +22.6724056     831.7917     69.48595      1.134     2.15    -11.04632      19.6041     148.4735        11     0.968     0.662  76.94   0
        56     73.2773    875.4070 299.9322358 +22.6520460      231.354     69.41512      0.926     3.11    -11.84022      19.6041       35.767         5     0.710     0.474  14.14   0
        57   1013.6066    863.0295 300.2289519 +22.9307029     1042.143     69.48595      1.093     2.03    -12.86944      19.6041     191.3376        12     0.834     0.774  16.26   0
        58    967.8221    861.5182 300.2151650 +22.9165410     1088.311     69.45055      1.103     3.20     -12.5959      19.6041     178.4757        12     1.052     0.646  58.07   0
        59    751.4186    855.2801 300.1497441 +22.8498472       265.07     69.48595      0.991     2.26    -12.31547      19.6041     58.12815         5     0.700     0.441  65.95   0
        60    619.5686    849.6694 300.1105050 +22.8086795     2417.292     69.46825      1.126     1.99    -12.14782      19.6041     382.0882        22     0.998     0.886  66.33   0
        61    109.3188    850.5224 299.9515313 +22.6557409     217.3987     69.59206      1.136     3.67    -11.66956      19.6041     45.77197         5     1.055     0.431 -37.62   0
        62    421.5602    846.8491 300.0497968 +22.7484447     430.2862     69.52135      1.235     2.46     -12.1969      19.6041     51.97226         6     0.749     0.488 -80.58   0
        63    169.6970    843.6526 299.9725272 +22.6719062     633.5883     69.55672      1.170     2.55    -11.52914      19.6041     110.7963        12     0.894     0.822  59.14   0
        64    639.9394    842.3129 300.1192426 +22.8126810     446.4145     69.57439      1.333     2.22      -12.162      19.6041     75.90414         8     0.773     0.674  85.82   0
        65    795.5659    829.3329 300.1719453 +22.8556424     1998.373     69.48595      1.047     1.84    -12.32423      19.6041     350.1641        16     0.884     0.761  62.35   0
        66   1012.5088    829.2774 300.2395966 +22.9206814     504.7633      69.6274      1.016     1.91    -12.50444      19.6041     102.3976         6     0.682     0.493  79.77   0
        67    204.0581    824.3239 299.9894963 +22.6766844     307.2903     69.52135      1.286     3.16    -11.63667      19.6041     40.09196         6     0.862     0.543 -87.59   0
        68    512.1755    821.8190 300.0861391 +22.7684627     307.7682     69.50365      1.055     2.55    -11.92876      19.6041     54.63992         8     0.761     0.688  33.12   0
        69    158.9309    819.9532 299.9768946 +22.6618796     347.2599     69.46825      1.065     2.18    -11.62643      19.6041     94.61979         7     0.818     0.517  47.99   0
        70    308.6571    812.1358 300.0259795 +22.7045965     25945.14     69.53903      1.166     2.00    -11.70382      19.6041      4349.63        57     1.120     1.030  59.70   0
        71    574.1628    814.8367 300.1077059 +22.7850611     216.6889     69.55672      1.157     3.74    -11.82207      19.6041     47.69844         6     0.761     0.608  73.64   0
        72    566.5374    811.0224 300.1065734 +22.7816786     792.0641     69.46825      1.077     2.16    -11.78945      19.6041     133.9624        10     0.854     0.652  30.45   0
        73    979.2679    809.7375 300.2355893 +22.9051042     489.1627     69.53903      1.130     2.49    -12.31618      19.6041     92.69801         8     0.847     0.625 -24.36   0
        74    595.5071    807.2570 300.1168176 +22.7892908      474.931     69.53903      1.263     2.42    -11.74666      19.6041     78.40208         9     0.882     0.679 -67.21   0
        75    606.3827    805.5123 300.1207714 +22.7920533     477.5816     69.43284      1.404     4.13    -11.73508      19.6041     52.48586         7     0.915     0.606  69.24   0
        76    711.8691    801.3444 300.1549788 +22.8225037     262.6118     69.50365      1.064     2.12    -12.26929      19.6041      56.6328         5     0.671     0.592  80.33   0
        77    749.2959    791.7125 300.1697726 +22.8309656      351.929     69.66272      1.096     2.42    -12.21783      19.6041     71.81789         7     0.812     0.582  63.59   0
        78    372.8116    789.9766 300.0531418 +22.7175008     948.1996     69.48595      1.171     2.15    -11.59319      19.6041     165.7668        12     0.851     0.762  10.30   0
        79    358.3810    789.3540 300.0488562 +22.7129905     15363.14     69.52135      1.141     2.03    -11.56189      19.6041     2391.019        44     1.076     1.008  71.23   0
        80    881.3176    785.0942 300.2130692 +22.8686591     1219.146     69.64507      1.110     1.80    -12.14531      19.6041     270.2419        13     0.853     0.735  50.14   0
        81    639.3538    781.0912 300.1389851 +22.7949376     537.8848     69.46825      1.124     2.12    -11.74006      19.6041     87.04593         7     0.702     0.620  71.00   0
        82    240.8485    781.1338 300.0149863 +22.6753488      309.922     69.48595      1.102     2.77    -11.51706      19.6041     54.76138         7     0.853     0.514 -46.44   0
        83     45.7504    776.5923 299.9558434 +22.6154592     292.7897     69.48595      1.087     4.14    -12.02527      19.6041     38.94032         7     1.071     0.458 -49.78   0
        84    486.3299    776.0082 300.0930039 +22.7475645       461.14     69.46825      1.427     2.17      -11.528      19.6041     61.35071         7     0.698     0.629  84.30   0
        85    887.5211    772.6850 300.2190413 +22.8669562     325.1573     69.60973      0.992     2.81    -12.00242      19.6041      50.2258         5     0.858     0.482  79.39   0
        86    238.6397    765.7186 300.0193155 +22.6702657     318.8269     69.45055      1.107     2.90    -11.41655      19.6041     44.61835         6     0.693     0.643 -52.56   0
        87    531.3913    753.7576 300.1142678 +22.7547024     327.6107     69.50365      1.171     4.02    -11.48547      19.6041     42.08855         7     0.951     0.487  87.52   0
        88    947.7822    750.2081 300.2451434 +22.8785692     2166.497     69.43284      1.103     1.89     -11.4585      19.6041      426.776        20     0.978     0.840  78.85   0
        89    553.4626    751.2655 300.1219487 +22.7606098     700.8618     69.52135      1.216     1.99    -11.48328      19.6041     130.2676        11     0.858     0.736 -71.69   0
        90    936.1605    741.6481 300.2443049 +22.8726268     900.4419     69.52134      1.186     1.88    -11.35173      19.6041     154.4325         9     0.738     0.648  66.43   0
        91    299.3082    736.0129 300.0478415 +22.6799603      509.848     69.43284      1.221     2.43    -11.16817      19.6041     73.98689         8     0.873     0.597  84.36   0
        92    762.4386    733.0598 300.1929525 +22.8180706      1359.41     69.50365      1.172     2.00    -11.72784      19.6041     207.2896        15     0.885     0.824  75.24   0
        93    967.3231    731.8645 300.2572055 +22.8791589     698.8577     69.57439      0.996     1.76    -11.19093      19.6041     165.3655        11     0.801     0.705  19.37   0
        94    147.8309    719.7742 300.0060401 +22.6298274      388.432     69.48595      1.256     4.26    -11.55852      19.6041     63.22605         8     1.237     0.506  38.14   0
        95    844.5994    718.7314 300.2232175 +22.8385942     234.0305     69.45055      0.953     2.59    -11.58257      19.6041     44.94893         5     0.705     0.458  71.07   0
        96    880.9817    709.9343 300.2374201 +22.8469764     71586.23     69.46825      1.175     1.85    -11.41075      19.6041     14824.16        95     1.169     1.064  64.51   0
        97    643.3863    713.8259 300.1621267 +22.7768422     192.0157     69.48595      1.077     2.83    -11.11441      19.6041     32.08093         5     0.719     0.458 -72.72   0
        98    733.1013    710.2997 300.1912172 +22.8027384     382.1836     69.71566      1.167     3.49    -11.46327      19.6041     55.07658         7     0.965     0.555 -18.89   0
        99    567.3848    698.8797 300.1433253 +22.7497539     682.5685     69.50365      1.137     2.14    -10.85191      19.6041     114.2238        11     0.901     0.683  63.88   0
