#   1 NUMBER                 Running object number                                     
#   2 X_IMAGE                Object position along x                                    [pixel]
#   3 Y_IMAGE                Object position along y                                    [pixel]
#   4 ALPHA_J2000            Right ascension of barycenter (J2000)                      [deg]
#   5 DELTA_J2000            Declination of barycenter (J2000)                          [deg]
#   6 FLUX_APER              Flux vector within fixed circular aperture(s)              [count]
#   7 FLUXERR_APER           RMS error vector for aperture flux(es)                     [count]
#   8 FLUX_RADIUS            Fraction-of-light radii                                    [pixel]
#   9 FWHM_IMAGE             FWHM assuming a gaussian core                              [pixel]
#  10 BACKGROUND             Background at centroid position                            [count]
#  11 THRESHOLD              Detection threshold above background                       [count]
#  12 FLUX_MAX               Peak flux above background                                 [count]
#  13 ISOAREA_IMAGE          Isophotal area above Analysis threshold                    [pixel**2]
#  14 A_IMAGE                Profile RMS along major axis                               [pixel]
#  15 B_IMAGE                Profile RMS along minor axis                               [pixel]
#  16 THETA_IMAGE            Position angle (CCW/x)                                     [deg]
#  17 FLAGS                  Extraction flags                                          
         1    166.1933     14.2147 300.2354687 +22.4424179     1922.794     69.03306      1.312     2.27    -8.319424     19.50117     264.3818        19     1.061     0.938 -74.56   0
         2    727.5801      6.4237 300.4127086 +22.6083685     495.8618     69.12115      1.171     2.89    -8.395488     19.50117      64.4071         8     0.923     0.616  56.35  16
         3    282.0057      6.5429 300.2739645 +22.4749271     623.9609     69.08593      1.224     2.59    -8.863558     19.50117     86.19411        10     0.838     0.772  41.88   0
         4    765.6998      1.8935 300.4260567 +22.6184796     221.7133     56.89533      1.283     4.72    -8.318146     19.50117     40.63813         5     0.888     0.712 -77.03  24
         5    193.7323   1014.5209 299.9189670 +22.7375776     820.3896      69.2267      5.104    10.23     24.34877     19.50117     30.11257        17     2.165     1.348  76.13  16
         6    290.8703   1022.7458 299.9464863 +22.7691097     653.0852     58.66452      1.222     2.39    -12.97449     19.50117     86.27911        10     0.854     0.714  67.30  24
         7     56.2808    941.6046 299.8999989 +22.6753995     1678.421     69.05069     16.529    23.38    -7.025488     19.50117     46.94388        93     5.711     2.657 -71.33   3
         8     51.8587    980.2454 299.8860456 +22.6851391     1815.692     69.15635     17.811    29.46    -1.743381     19.50117     46.86885       170     5.270     4.573  17.04   3
         9     74.1881    962.8002 299.8986615 +22.6868506     2555.388     68.94486     28.395    77.31    0.5222725     19.50117     66.65028      1315    17.027     9.740 -84.29  19
        10     72.9843    931.5402 299.9084638 +22.6775343     2049.546     69.08593     19.453    26.16     -7.38341     19.50117     53.54367       145     6.464     2.940   4.57   3
        11     72.5016    919.4749 299.9122413 +22.6739330     1874.849     69.24428     15.109    23.57    -8.706007     19.50117      45.2402       121     5.133     3.005 -18.59   3
        12    142.3936   1018.0339 299.9018683 +22.7231620     485.2939     69.12115      2.412     6.95     24.89715     19.50117     32.43551         8     2.063     0.657  37.99  16
        13    161.7394    986.4528 299.9181635 +22.7199265     1147.738     69.17394      4.445    10.54     13.94267     19.50117     39.22819        17     2.021     1.531 -76.71   2
        14     73.4192   1004.8221 299.8847407 +22.6986560     2441.483     69.12115     15.314    24.25     10.71385     19.50117      54.9172       155     5.627     2.902  79.79  19
        15    921.9013    980.5845 300.1567043 +22.9464062     391.9394     69.03306      1.126     1.48    -13.61207     19.50117      75.4866         5     0.606     0.462  25.81   0
        16    204.8461   1005.4422 299.9253776 +22.7383149     890.6097     69.19154      9.014    11.52     20.71974     19.50117     32.54445        22     2.044     1.809 -78.14   3
        17    213.6517    999.6954 299.9299860 +22.7393133     1410.245     69.19154     13.052    13.29     18.82901     19.50117     52.59177        39     3.661     1.343 -11.73   3
        18    214.6734    992.2715 299.9327209 +22.7374931     1949.329     69.17394     12.184    26.47     15.68172     19.50117      69.8783       104     5.890     3.303  10.37  19
        19    194.5247    996.8267 299.9249750 +22.7327463     2011.193     69.12115      7.870    18.82     17.65586     19.50117     115.4988        77     3.536     2.783 -33.71   3
        20    143.7112    968.0897 299.9185399 +22.7092504     791.5872     69.27942      4.835     7.24      7.74971     19.50117      35.4115        11     1.528     0.960  22.38   2
        21    542.4062   1001.7562 300.0315783 +22.8386156      1064.39     69.13875      1.059     2.01    -12.87204     19.50117     180.0113        12     0.829     0.725  58.29   0
        22    647.1937    964.0419 300.0764859 +22.8592494     3347.744     69.15635      1.221     2.05    -13.18236     19.50117     569.0441        23     0.994     0.889  60.08   0
        23    125.8523    964.9182 299.9140231 +22.7029773     640.9785     69.15635      4.632     5.12     6.563907     19.50117     31.97575         6     1.046     0.710  89.66   0
        24     33.3937   1000.7233 299.8736428 +22.6854562     468.4962     69.03306      2.599     5.23    -6.031544     19.50117     29.35028         5     1.041     0.743  10.48   0
        25    555.8265    954.8895 300.0510166 +22.8292055     743.7324     69.08593      1.096     2.10    -12.84178     19.50117     140.2107         9     0.787     0.677 -20.42   0
        26    628.8774    997.0002 300.0600497 +22.8632048     3986.407      68.9978      1.182     1.91    -13.52823     19.50117     740.5223        28     1.035     0.937  47.03   2
        27    449.3155    951.1572 300.0190815 +22.7961655     615.5314     69.08593      1.265     2.67    -12.76597     19.50117     82.46539        10     0.862     0.782  53.38   0
        28    380.2272    949.4493 299.9981430 +22.7749351     3092.428     69.13875      1.090     1.89    -12.67379     19.50117     537.0605        20     0.913     0.846 -74.66   0
        29    111.9019    949.9019 299.9145772 +22.6944850     729.2629     69.31454      3.952     3.92     1.151189     19.50117       30.711         5     1.706     0.258  50.03   3
        30    106.0752    948.4396 299.9132429 +22.6923158     1359.534     69.08593     12.243    12.38    0.3612798     19.50117     41.94505        28     2.303     1.852  40.65   2
        31    634.4851    994.6509 300.0625611 +22.8642140     4425.085     69.10354      1.101     1.93    -13.50797     19.50117     655.0303        26     1.017     0.882 -73.00   2
        32    226.7924    978.3916 299.9410074 +22.7371560     1801.599     68.98016      5.555    18.61     9.259405     19.50117     54.45563        67     4.380     2.198   6.88   3
        33    237.2549    987.1222 299.9414171 +22.7427999     3951.167     69.15635      6.039    26.32     8.663939     19.50117     109.3394       203     8.196     2.347  67.81  19
        34    229.7874    984.1005 299.9400797 +22.7396913     2039.966     69.03306      8.679    14.37      10.4301     19.50117     60.49979        54     3.178     1.806 -88.71   3
        35    412.5508    935.7875 300.0126464 +22.7807228     232.9328     69.17394      1.014     2.57    -12.71226     19.50117     37.23083         5     0.713     0.448  67.13   0
        36    926.5175    927.8989 300.1752986 +22.9326707     936.4057     69.27942      1.091     1.85    -13.18519     19.50117     177.6035        11     0.835     0.662  20.13   0
        37    715.1510    915.8129 300.1133555 +22.8658051     391.8062     69.15635      1.528     2.95    -12.69165     19.50117     54.49237         9     0.884     0.730 -81.15   0
        38     99.1590   1021.3054 299.8873697 +22.7111104     1951.959     64.72041      5.884    19.41     26.30413     19.50117     67.14616       103     5.305     1.973  14.77  27
        39    749.8661    911.1050 300.1257038 +22.8748687     642.5123     69.24428      1.315     2.22    -12.65956     19.50117     119.8862        11     1.137     0.577 -72.42   0
        40    527.1696    911.6833 300.0561619 +22.8082152     265.6962     69.13875      1.086     4.11    -12.61315     19.50117     44.59005         5     1.005     0.479  59.97   0
        41    772.3571    904.7159 300.1347917 +22.8797822     5526.794     69.08593      1.078     1.76    -12.61737     19.50117     1071.843        31     0.996     0.934 -80.78   0
        42    963.3380    904.0059 300.1945594 +22.9368539     308.3337     69.10354      1.412     3.08    -12.92938     19.50117     53.73546         6     0.850     0.607  53.49   0
        43    817.8599    904.4584 300.1490561 +22.8933567     213.7038     69.19154      0.914     1.98    -12.62511     19.50117     62.12885         6     0.698     0.573  77.17   0
        44     78.4716   1017.3088 299.8822443 +22.7037504     2969.317     69.27942     14.262    41.26      16.0228     19.50117     66.55989       422     8.622     5.481   7.23  27
        45    477.4433    892.8849 300.0468041 +22.7879006     221.1806     69.08593      1.127     3.37    -12.47298     19.50117     40.87524         5     0.752     0.437 -67.35   0
        46    780.9765    886.7120 300.1433383 +22.8772017     829.7087     69.05069      1.159     1.75    -12.49079     19.50117     157.9295         9     0.798     0.612  70.96   0
        47    818.5441    880.1460 300.1571835 +22.8865852     287.5184     69.15635      1.050     2.67     -12.4446     19.50117     67.74124         5     0.736     0.568  18.61   0
        48    718.7897    870.6583 300.1291875 +22.8539420     350.8952     69.08593      1.135     2.88    -12.36706     19.50117      51.2505         7     0.723     0.653  27.11   0
        49    431.4297    867.0856 300.0408828 +22.7666924     2061.258     69.12115      1.103     1.98    -12.30778     19.50117     358.9102        20     0.939     0.890 -89.14   0
        50    209.7693    855.7129 299.9756489 +22.6968883     169.4831     69.10354      0.936     3.78    -11.66683     19.50117     31.77757         5     0.909     0.451  46.25   0
        51    156.6921    852.5898 299.9601684 +22.6800550     407.2905     69.06831      1.174     2.94    -11.39314     19.50117     78.70451         9     1.002     0.724 -15.10   0
        52    133.7867    849.9620 299.9539056 +22.6724234     746.2408     69.13875      1.221     1.98    -11.46294     19.50117     150.1635        13     1.013     0.738 -67.90   0
        53   1005.3842    838.6301 300.2289534 +22.9306918     1050.132     69.12115      1.053     2.01    -12.53815     19.50117     172.2083        13     0.836     0.757  29.17   0
        54    959.5977    837.0714 300.2151798 +22.9165180     1012.577     69.06831      1.039     1.97    -12.41539     19.50117     191.7534        13     0.870     0.767 -57.37   0
        55    665.4184    836.8596 300.1235621 +22.8282348     215.8314     69.08593      1.122     3.47    -12.22283     19.50117     28.93188         5     0.794     0.437 -69.83   0
        56    127.1115   1017.7564 299.8972101 +22.7184916     809.9916     69.12115      2.437     7.72     25.01463     19.50117     38.83746        16     1.661     1.004  27.76  16
        57    611.2817    825.2241 300.1104886 +22.8086559      2196.52     69.08593      1.068     1.75    -11.89829     19.50117      453.153        17     0.862     0.810 -65.72   0
        58    413.4632    822.2664 300.0498781 +22.7484484     342.2912     69.17394      1.012     2.34    -11.83363     19.50117     53.35418         5     0.688     0.459  67.60   0
        59    161.5706    819.1501 299.9725657 +22.6719367     740.4834     69.13875      1.173     2.31    -11.61833     19.50117     121.0817         9     0.809     0.714 -86.79   0
        60    632.0624    817.5109 300.1194699 +22.8126773     305.5052     69.20912      1.180     2.52    -11.97511     19.50117     62.51708         9     0.847     0.725 -14.62   0
        61    787.2469    804.8956 300.1719196 +22.8556035     2006.297     69.13875      1.082     1.71    -12.29484     19.50117     431.8498        17     0.894     0.784  84.10   0
        62   1004.2343    804.9279 300.2395625 +22.9206704     494.0492     69.12115      1.033     1.75    -12.43289     19.50117     125.5237         8     0.725     0.601  49.96   0
        63    150.6010    795.4343 299.9768727 +22.6618458     559.4449     69.08593      1.151     2.75    -11.75425     19.50117     99.13367        11     0.924     0.768  -5.04   0
        64   1023.0616    792.6323 300.2494366 +22.9227832     1062.227     57.04486      0.621     1.10    -12.41945     19.50117     499.7234         5     0.484     0.385 -80.99  24
        65    300.4597    787.6512 300.0259913 +22.7046053      26360.6     69.17394      1.127     1.99    -11.68416     19.50117     3842.562        58     1.104     1.038 -88.76   0
        66    558.1291    786.4955 300.1065407 +22.7815992     828.2261      69.2267      1.147     2.05    -11.66535     19.50117      137.144        11     0.827     0.754  54.26   0
        67    971.2195    785.3896 300.2356224 +22.9051639     484.4101     69.10354      1.153     2.67    -12.24925     19.50117     84.62917         9     0.830     0.776 -77.75   0
        68    228.7218    785.7474 300.0043057 +22.6825242     269.0165     69.15635      1.332     3.76    -11.75647     19.50117     39.03604         6     0.727     0.660 -27.55   0
        69    587.2532    782.5246 300.1169003 +22.7891975     515.4309     69.13875      1.198     2.27     -11.6599     19.50117       84.313         6     0.771     0.515  47.79   0
        70    597.8702    780.9335 300.1207238 +22.7919261     348.3036     69.15635      1.212     1.94    -11.65627     19.50117     71.75389         6     0.795     0.450  59.17   0
        71    703.4453    776.8582 300.1549313 +22.8224247      211.952     69.15635      1.383     4.99     -12.0143     19.50117     33.85452         7     0.914     0.770  24.11   0
        72    350.1558    764.8500 300.0488649 +22.7129838     15678.47     69.15635      1.170     1.91    -11.43259     19.50117     2912.479        47     1.076     0.995  86.13   0
        73    741.2762    767.3063 300.1698252 +22.8310293     391.7297     69.24428      1.132     1.88    -11.96168     19.50117     66.23334         6     0.654     0.571 -46.23   0
        74    364.3979    765.3152 300.0531437 +22.7173916     1010.301     69.05069      1.101     1.93      -11.421     19.50117     151.3386        12     0.877     0.703 -83.25   0
        75    873.1513    760.4297 300.2131635 +22.8685983     1420.819     69.13875      1.051     1.58    -11.93327     19.50117     271.4364        14     0.902     0.711  77.87   0
        76    467.5266    757.0697 300.0879127 +22.7459745     140.7119     69.19154      1.026     4.19    -11.52428     19.50117     35.15482         6     1.026     0.489 -83.51   0
        77    630.9872    756.3370 300.1390387 +22.7948031     516.5496     69.10354      1.219     3.15    -11.66589     19.50117     77.72214         9     1.026     0.584  61.16   0
        78    232.7950    756.5448 300.0150720 +22.6753754     455.2095     69.10354      1.192     2.00    -11.74621     19.50117     62.00596         6     0.700     0.493  -8.22   0
        79    478.1456    751.4252 300.0930536 +22.7475416     376.6259     69.13875      1.036     2.14     -11.5387     19.50117     72.50753         8     0.744     0.644  87.03   0
        80    879.2880    747.9963 300.2191216 +22.8668687     322.1361     69.05069      1.041     1.94    -11.84481     19.50117     67.69228         7     0.692     0.617 -56.51   0
        81    336.2689    747.2213 300.0502803 +22.7037609     146.9195     69.12115      0.989     3.57    -11.40671     19.50117     35.97297         6     0.763     0.552  38.10   0
        82     65.5840    745.8087 299.9666005 +22.6220948      197.594     69.05069      1.029     4.14    -11.89714     19.50117     36.69329         6     0.935     0.568 -23.38   0
        83    230.0378    740.9631 300.0192833 +22.6700807     282.1126     69.19154      1.174     2.69    -11.74878     19.50117     48.79789         5     0.772     0.496  28.11   0
        84    523.4695    729.7064 300.1142256 +22.7549096     181.2109     69.24428      1.137     3.07     -11.4963     19.50117     38.87682         5     0.736     0.450  68.23   0
        85    545.0355    727.0563 300.1218009 +22.7606190     656.0038     69.13875      1.085     1.90    -11.50074     19.50117     145.4707        10     0.791     0.708 -83.66   0
        86    939.5143    725.8146 300.2451166 +22.8785539     2143.224     69.06831      1.089     1.85    -11.82639     19.50117      373.929        18     0.884     0.819  88.05   0
        87    928.0887    717.1949 300.2443575 +22.8726541     848.1264     69.03306      1.185     1.79    -11.77366     19.50117     180.9279        11     0.898     0.757 -17.95   0
        88    290.8952    711.2122 300.0478818 +22.6798173     368.3881     69.05069      1.034     1.87    -11.40592     19.50117     88.89302         8     0.743     0.613  57.83   0
        89    754.0717    708.5671 300.1929200 +22.8180070     1339.263     69.12115      1.131     2.00     -11.5731     19.50117     219.5004        14     0.841     0.805  36.92   0
        90    959.1407    707.3288 300.2572505 +22.8791283     881.6459     69.15635      1.116     1.78    -11.82126     19.50117     160.0016        10     0.856     0.620  43.17   0
        91    139.7762    695.1865 300.0061166 +22.6298612     280.8669     69.12115      1.116     2.62    -11.74312     19.50117     46.41041         6     0.729     0.555 -51.82   0
        92    836.6709    693.8127 300.2234614 +22.8385363     245.0248     69.13875      1.178     2.46    -11.54905     19.50117     60.40071         5     0.803     0.411  40.87   0
        93    872.7733    685.4501 300.2374356 +22.8469579     72190.16     69.13875      1.079     1.77    -11.53315     19.50117     12850.74        99     1.177     1.061  85.88   0
        94   1019.7255    687.0636 300.2827394 +22.8914652     615.1692     68.96251      1.097     1.84    -11.85906     19.50117     128.0707        10     0.871     0.641   6.69  16
        95    725.0791    685.6932 300.1913263 +22.8027478     335.3269      69.2267      0.973     2.22    -11.41689     19.50117      65.6449         7     0.713     0.619 -26.65   0
        96    905.5279    678.2705 300.2499830 +22.8547144      276.445     69.19154      1.007     2.88    -11.61371     19.50117     48.82166         7     0.909     0.485  81.05   0
        97    559.0217    674.2869 300.1433179 +22.7496738     820.2502     69.05069      1.153     2.06    -11.05659     19.50117     158.7627        12     0.859     0.781  68.22   0
        98    740.2272    671.6506 300.2006129 +22.8032590     4555.646     69.13875      1.113     1.92    -11.41111     19.50117     792.9482        25     0.982     0.848  79.75   0
        99    241.8897    666.9515 300.0470382 +22.6524175     2481.813     69.12115      1.230     1.95    -11.21412     19.50117     432.4571        21     1.004     0.874  55.93   0
