#   1 NUMBER                 Running object number                                     
#   2 X_IMAGE                Object position along x                                    [pixel]
#   3 Y_IMAGE                Object position along y                                    [pixel]
#   4 ALPHA_J2000            Right ascension of barycenter (J2000)                      [deg]
#   5 DELTA_J2000            Declination of barycenter (J2000)                          [deg]
#   6 FLUX_APER              Flux vector within fixed circular aperture(s)              [count]
#   7 FLUXERR_APER           RMS error vector for aperture flux(es)                     [count]
#   8 FLUX_RADIUS            Fraction-of-light radii                                    [pixel]
#   9 FWHM_IMAGE             FWHM assuming a gaussian core                              [pixel]
#  10 BACKGROUND             Background at centroid position                            [count]
#  11 THRESHOLD              Detection threshold above background                       [count]
#  12 FLUX_MAX               Peak flux above background                                 [count]
#  13 ISOAREA_IMAGE          Isophotal area above Analysis threshold                    [pixel**2]
#  14 A_IMAGE                Profile RMS along major axis                               [pixel]
#  15 B_IMAGE                Profile RMS along minor axis                               [pixel]
#  16 THETA_IMAGE            Position angle (CCW/x)                                     [deg]
#  17 FLAGS                  Extraction flags                                          
         1    487.8795     14.4088 300.3327264 +22.5430729     374.3305      69.4134      1.105     2.11    -8.239196     19.59861     81.83092         9     0.800     0.665  66.44   0
         2    391.2911     12.5038 300.3032916 +22.5135952     307.0705     69.64321      1.146     3.06    -8.227435     19.59861      50.3511         7     0.831     0.613  73.64   0
         3    773.6013     10.8163 300.4228646 +22.6275867      248.047     69.36025      1.480     3.42    -8.675261     19.59861     30.05884         5     0.731     0.463  73.59   0
         4    162.9963      2.7329 300.2354783 +22.4423879     1789.876     61.04707      1.357     2.75    -8.564274     19.59861     222.7563        19     1.006     0.987 -30.15  24
         5    191.5691   1000.6009 299.9201286 +22.7372539     819.8643      69.4311      3.417     4.25     24.23382     19.59861     31.74561         5     0.980     0.525 -43.18   3
         6     70.1328    921.0938 299.9082859 +22.6780018     2153.509      69.6079     24.528    40.49     -7.84024     19.59861     53.10203       320     9.196     4.947 -20.52   3
         7     52.2458    963.4813 299.8889334 +22.6847757     2137.473      69.4488     22.553    38.62      -2.3765     19.59861     53.29879       284    10.292     4.022 -76.95  19
         8     71.4744    951.6827 299.8987459 +22.6871701     2964.046     69.57258     30.580    98.37   -0.4494552     19.59861     69.08912      1829    26.524    10.122  88.96  19
         9    631.3445    983.1983 300.0625836 +22.8642639     4589.785     69.39568      1.192     2.05    -13.48282     19.59861     713.7471        26     1.028     0.943 -80.56   3
        10    725.9675    986.2162 300.0910675 +22.8935154      403.581      69.4488      1.326     3.44    -13.44593     19.59861     61.47028         8     0.916     0.698  16.11   0
        11    170.2056    999.1990 299.9139468 +22.7304368     896.1801     69.28933      5.059    12.18      24.5358     19.59861     32.79931        10     3.459     1.194 -78.42  18
        12    158.5680    979.4102 299.9167738 +22.7212710     890.2758      69.4665      3.903    10.98     16.57725     19.59861     37.33913        14     2.412     1.393 -23.38   2
        13    167.2909    999.3002 299.9130083 +22.7295905     1249.333     69.62556      3.759     6.91     24.69481     19.59861     45.88544        10     2.627     0.509 -74.15   3
        14    167.5133    987.4004 299.9169518 +22.7262471     761.8965     69.36025      3.610     4.00     19.55264     19.59861     38.55608         5     1.035     0.442 -75.52   1
        15     74.4138   1019.5994 299.8775473 +22.7075125     4621.174     69.30707     11.762    40.64     21.15362     19.59861     84.01524       622     9.970     6.291 -15.80  27
        16    539.2291    990.3978 300.0315656 +22.8386903     1244.861      69.4134      1.154     1.98    -12.97322     19.59861      203.476        14     0.838     0.794  71.34   0
        17    191.7782    972.5829 299.9293156 +22.7292869     404.5609      69.4488      2.964     4.53     12.13654     19.59861     31.26871         5     1.457     0.401  11.84   0
        18    918.6940    969.2003 300.1566630 +22.9464294     458.5184     69.34253      1.169     3.52    -13.42514     19.59861     72.11691         7     0.952     0.578  69.34   0
        19    222.1804    999.2356 299.9300859 +22.7460546     497.6898     69.48419      1.933     6.56     21.77964     19.59861      33.3956        12     1.296     0.931   0.73   0
        20    100.4276   1015.5964 299.8869304 +22.7141792     3189.555      69.4311      5.195    23.71     32.18307     19.59861     71.78844       174     4.872     3.206  37.76  19
        21    347.5946    997.1981 299.9697366 +22.7831240     249.8007     69.28933      1.249     4.62    -13.68993     19.59861     35.43223         5     0.849     0.714  45.90   0
        22    163.6933    993.8603 299.9136617 +22.7269512     1399.812     69.55491      5.284     9.26     22.73995     19.59861      41.8876        19     1.945     1.231   9.17   3
        23    139.4620    956.7076 299.9182287 +22.7090275     692.0321     69.57258      2.287     3.79     7.298113     19.59861     40.19531         5     1.558     0.265 -44.49   0
        24    107.9090    956.6747 299.9084375 +22.6995426     441.3101      69.6079      2.011     3.44     7.298113     19.59861     40.50124         5     0.834     0.411  18.07   0
        25    644.0969    952.6617 300.0764964 +22.8593291     3338.495     69.55491      1.211     2.19    -13.02977     19.59861     522.9985        25     1.060     0.935  48.27   0
        26    135.0000    955.2290 299.9173239 +22.7072638     754.2356      69.4134      2.510     5.72     6.454555     19.59861     76.78144         7     1.785     0.555  73.95   2
        27    138.0415    954.3401 299.9185582 +22.7079224     806.7296      69.4488      6.190     8.14     6.032776     19.59861      31.4081         6     2.830     0.655  19.87   3
        28    192.5721    984.3913 299.9257179 +22.7329096     2033.955      69.4665      8.944    14.92     16.83107     19.59861     56.80363        60     2.847     2.174  50.42   3
        29    115.3982    950.7722 299.9126854 +22.7001002     821.5734      69.4134      7.645     6.41      4.76744     19.59861     41.27053         8     2.047     0.563  46.41   1
        30    230.3736    972.0561 299.9414813 +22.7407245     3672.473      69.4665      8.687    28.85     7.944816     19.59861     96.61765       378     7.681     4.539  58.89   2
        31    101.2143    937.4819 299.9126056 +22.6920321     1480.135      69.4488     13.805    15.11    -1.137465     19.59861     47.12517        33     3.235     1.963 -24.84   3
        32    377.0218    937.9581 299.9981742 +22.7749721     3172.013     69.50188      1.237     1.99    -12.67043     19.59861      565.691        22     0.970     0.926  22.66   0
        33    523.4232    946.8060 300.0408393 +22.8214444     278.7453      69.4488      1.176     3.44     -12.7862     19.59861     33.98176         5     0.738     0.464 -72.73   0
        34    552.4922    943.4852 300.0509672 +22.8292140     874.2029     69.62556      1.183     2.24     -12.7841     19.59861     123.2319        12     0.846     0.746  78.76   0
        35    409.6691    924.9451 300.0125643 +22.7810388     242.4872     69.50188      1.276     3.93    -12.68901     19.59861     44.49561         7     0.872     0.679 -21.15   0
        36    923.2617    916.4813 300.1752505 +22.9326642     1110.145     69.55491      1.186     2.25    -13.04994     19.59861     155.9438        14     0.866     0.838 -32.45   0
        37    446.2046    940.0961 300.0189973 +22.7963483     559.5119     69.37797      1.208     2.55    -12.83771     19.59861     98.48352        10     0.956     0.646 -17.60   0
        38    767.5247    910.3726 300.1287048 +22.8842146      126.301      69.4488      1.051     4.26    -12.65824     19.59861     26.43944         6     1.097     0.472 -80.59   0
        39    203.6143    991.4597 299.9268479 +22.7382511     1245.715      69.4311      7.575     8.89     19.24553     19.59861     51.37532        22     2.213     0.997 -43.57   3
        40    210.4928    983.2925 299.9316445 +22.7379757     2449.578     69.62556     12.606    26.18     15.40756     19.59861     62.70606       149     4.948     3.847 -60.85   3
        41    746.9352    899.4909 300.1258328 +22.8749170     447.9638     69.59025      1.014     2.03    -12.55786     19.59861     89.55241         8     0.752     0.633 -87.80   0
        42    769.1125    893.3075 300.1347542 +22.8797928     5532.182     69.62556      1.138     1.84    -12.53867     19.59861     1044.293        28     0.965     0.925  27.21   0
        43    959.9692    892.9264 300.1943626 +22.9369052     202.0742     69.48419      0.939     2.44    -13.01938     19.59861     54.98804         5     0.747     0.502 -30.33   0
        44    814.7679    893.5015 300.1489160 +22.8935388     130.3199      69.4488      0.934     2.82     -12.6271     19.59861     38.38875         5     0.726     0.435  25.15   0
        45    625.7079    985.4943 300.0600812 +22.8632314     4153.844     69.62556      1.172     2.04    -13.51285     19.59861     576.3191        27     1.032     0.980  80.33   3
        46    474.5769    881.3678 300.0469402 +22.7880179     79.02592      69.4665      1.136     4.18    -12.43001     19.59861     33.01579         5     0.991     0.503  44.54   0
        47    820.6245    880.3635 300.1550172 +22.8915235     191.3905     69.48419      0.894     3.21    -12.57912     19.59861     39.32355         5     0.734     0.458 -74.17   0
        48    777.7260    875.3150 300.1432939 +22.8772114     671.4785     69.59025      1.200     2.42    -12.42351     19.59861      103.085         9     0.831     0.683 -81.53   0
        49    960.4859    874.8564 300.2004053 +22.9318713     261.2369     69.57258      1.018     2.84    -12.95095     19.59861     47.36182         5     0.739     0.444 -67.10   0
        50    629.8172    872.4457 300.0981614 +22.8320297     306.1974     69.48419      1.215     3.50    -12.26651     19.59861     46.14188         5     0.744     0.476 -14.48   0
        51    815.8882    868.8766 300.1572799 +22.8868060     480.9064     69.59025      1.295     2.37    -12.49844     19.59861     70.99358         8     0.762     0.671 -44.84   0
        52    863.9968    860.2776 300.1750710 +22.8987609     287.7799     69.37797      1.100     2.30    -12.72452     19.59861     55.65303         5     0.757     0.467 -59.48   0
        53    715.5172    859.1362 300.1291808 +22.8539130     317.6607     69.57258      1.138     2.30    -12.27391     19.59861     62.29433         8     0.805     0.632 -35.33   0
        54    428.0626    855.6428 300.0408412 +22.7666823     2217.242      69.4665      1.173     1.97    -12.32865     19.59861     354.7955        20     1.012     0.917 -63.53   0
        55    726.8242    856.3170 300.1336201 +22.8564946     282.8645      69.4311      1.024     1.99    -12.27922     19.59861     62.83573         5     0.678     0.452 -12.60   0
        56    153.3640    841.3174 299.9601024 +22.6801278     351.3075      69.4488      1.163     2.34    -11.03671     19.59861     61.85623         6     0.692     0.618 -42.12   0
        57    130.7150    838.5876 299.9539540 +22.6725456     779.5991      69.4134      1.169     2.17    -11.20385     19.59861     104.0546        13     0.919     0.754  14.35   0
        58   1002.0878    827.2446 300.2288732 +22.9306670     1011.667      69.4488      1.142     1.86    -12.60285     19.59861     203.8238        13     0.840     0.756 -23.57   0
        59    956.4319    825.6598 300.2151520 +22.9165286     981.1631     69.50188      1.077     2.17    -12.54836     19.59861     172.4378        14     0.859     0.804 -54.51   0
        60    739.9040    819.7841 300.1495827 +22.8499306     407.6283     69.37797      1.193     1.58    -12.26365     19.59861     68.05991         6     0.661     0.506  56.63   0
        61    608.1819    813.7764 300.1105174 +22.8087049     2254.556     69.48419      1.080     1.83    -12.12968     19.59861     441.5126        18     0.873     0.819 -88.44   0
        62     97.7445    814.4688 299.9515590 +22.6557333     207.6625     69.50188      1.273     2.93    -11.68512     19.59861     34.66385         5     0.716     0.464 -19.71   0
        63    158.3375    807.7637 299.9725646 +22.6720016     542.3233     69.48419      1.133     2.94    -11.59506     19.59861     101.4163        10     0.900     0.716 -25.35   0
        64    784.1086    793.3987 300.1719391 +22.8556097      2103.61     69.37797      1.042     1.76    -12.18613     19.59861     404.4474        13     0.872     0.687  85.12   0
        65   1000.9443    793.3709 300.2395388 +22.9205951      558.572      69.4665      1.180     2.98     -12.2957     19.59861      82.1326        10     1.023     0.649  11.37   0
        66    500.9543    785.9476 300.0861968 +22.7685568     319.6219     69.50188      1.225     2.00    -12.09253     19.59861     67.64366         5     0.615     0.544 -88.34   0
        67    147.7112    784.1480 299.9769457 +22.6620412     460.8169     69.48419      1.130     2.28    -11.76296     19.59861     94.06058         9     0.850     0.641  27.09   0
        68    297.2475    776.1458 300.0260245 +22.7046273     26151.12     69.50188      1.188     1.92    -11.87801     19.59861     4533.224        57     1.123     1.060  75.66   0
        69    562.8610    779.2390 300.1076460 +22.7852008     306.5638      69.4665      1.000     1.90    -11.95741     19.59861     54.66499         6     0.691     0.534 -52.64   0
        70    554.9776    775.1864 300.1065106 +22.7816733     795.7314      69.4488      1.174     2.18     -11.9248     19.59861     182.5402        11     0.903     0.675  46.41   0
        71    968.0294    773.7728 300.2356510 +22.9051023     481.6519      69.4665      1.271     2.95    -12.24441     19.59861     90.16782         9     0.969     0.609 -59.17   0
        72    583.9059    770.8904 300.1169128 +22.7891167      463.625     69.62556      1.093     1.93    -11.86256     19.59861     106.0038         8     0.715     0.657 -49.68   0
        73    595.1100    769.2665 300.1209289 +22.7920108     401.3407     69.57258      1.175     1.85    -11.83591     19.59861      61.6838         6     0.686     0.520  64.32   0
        74    700.2953    765.8263 300.1548008 +22.8225653      248.803      69.4134      1.219     3.52    -11.86112     19.59861     45.15025         6     0.965     0.673 -41.80   0
        75    737.9703    755.8954 300.1697663 +22.8310102      265.864     69.39568      1.104     2.74     -11.7674     19.59861     74.79412         8     0.885     0.637  86.20   0
        76    346.9555    753.3798 300.0488859 +22.7130130     15389.27     69.51956      1.167     1.96    -11.81368     19.59861     2598.807        50     1.121     1.001  80.18   0
        77    361.2453    753.8690 300.0531707 +22.7174408     1035.582      69.4488      1.224     2.03    -11.82383     19.59861     166.0385        13     0.975     0.712 -38.76   0
        78    869.8581    748.8306 300.2131601 +22.8685169     1433.722     69.48419      1.192     1.96    -11.86029     19.59861     296.6802        15     0.958     0.809  44.30   0
        79    358.1579    747.4285 300.0543054 +22.7146670     327.8206     69.48419      1.219     1.94    -11.76523     19.59861     45.77024         5     0.673     0.457  22.71   0
        80    229.4783    745.1813 300.0150301 +22.6754096     364.7402      69.4665      1.075     2.62    -11.76514     19.59861     64.63714         7     0.887     0.494  84.24   0
        81    627.9120    745.1708 300.1389795 +22.7949319      399.247      69.4665      1.106     1.99    -11.62162     19.59861     87.07792         8     0.775     0.594  39.26   0
        82    464.6966    745.1829 300.0881757 +22.7459842     156.8705     69.37797      0.971     2.03    -11.75212     19.59861      48.3497         5     0.783     0.641 -33.88   0
        83    475.0062    740.0462 300.0930543 +22.7476028     426.8643     69.48419      1.031     1.64    -11.70831     19.59861     98.14935         5     0.570     0.545  -0.61   0
        84    876.1776    736.6620 300.2190882 +22.8669164     431.7098      69.4488      1.285     2.18    -11.78495     19.59861     61.84185         6     0.705     0.558  46.14   0
        85    420.6121    734.8173 300.0778325 +22.7297859     331.3953      69.4311      1.086     1.92    -11.67675     19.59861     55.62923         5     0.700     0.423  64.37   0
        86    854.1663    731.4214 300.2139324 +22.8588142     256.7606     69.48419      1.189     2.87    -11.70933     19.59861     30.86802         5     0.729     0.447  21.38   0
        87    227.1335    729.4680 300.0194120 +22.6701996     241.1836     69.51956      1.059     3.11    -11.71524     19.59861     47.43827         6     0.967     0.451  60.76   0
        88    520.0083    718.0196 300.1142221 +22.7547799      238.199      69.4311      0.968     1.52    -11.56184     19.59861      74.1367         5     0.560     0.530 -89.71   0
        89    936.3652    714.3668 300.2451029 +22.8785501     2264.929     69.53724      1.056     1.73    -11.82615     19.59861     412.1609        18     0.912     0.790  83.02   0
        90    541.8310    715.3826 300.1218715 +22.7605679     762.7238      69.4488      1.205     1.90    -11.51917     19.59861     114.0435         9     0.784     0.618  71.55   0
        91    924.8464    705.7194 300.2443242 +22.8726145     899.6093      69.4488      1.084     1.72    -11.73236     19.59861     180.6553         9     0.763     0.620 -64.91   0
        92    287.7861    699.7867 300.0479187 +22.6798865     433.2256     69.39568      1.195     1.95    -11.40838     19.59861     93.63314         9     0.819     0.616 -20.62   0
        93    751.2913    697.1062 300.1930380 +22.8181243     1255.396     69.62556      1.233     1.92     -11.4761     19.59861     259.7704        15     1.091     0.855   2.75   0
        94    955.9681    695.8201 300.2572471 +22.8790964     765.7137      69.4665      1.155     1.98    -11.69134     19.59861     153.4656        11     0.855     0.695 -84.61   0
        95    833.4186    682.7441 300.2232982 +22.8386162     213.5981      69.4488      1.083     3.06    -11.47502     19.59861     33.05541         5     0.726     0.450 -69.25   0
        96    136.6562    683.5197 300.0062387 +22.6298695     395.2619     69.50188      1.163     3.02    -11.68219     19.59861     51.21883         5     0.717     0.447  23.42   0
        97    869.6007    673.9969 300.2374195 +22.8469473     71946.55     69.25385      1.101     1.80    -11.43498     19.59861     13418.68        97     1.147     1.082  79.94   0
        98   1016.6630    675.7556 300.2827001 +22.8915168     635.4735     69.48419      1.082     2.18      -11.501     19.59861     103.3665         8     0.771     0.617 -55.00   0
        99    722.1006    674.5870 300.1912683 +22.8029079     488.6677     69.37797      1.043     2.62    -11.41241     19.59861     71.06594         7     0.819     0.559  33.15   0
